SpectraSuite Data File
++++++++++++++++++++++++++++++++++++
Date: Fri Dec 06 15:53:46 CET 2024
User: student
Dark Spectrum Present: No
Reference Spectrum Present: No
Number of Sampled Component Spectra: 1
Spectrometers: HR4C155
Integration Time (usec): 100000 (HR4C155)
Spectra Averaged: 1 (HR4C155)
Boxcar Smoothing: 0 (HR4C155)
Correct for Electrical Dark: No (HR4C155)
Strobe/Lamp Enabled: No (HR4C155)
Correct for Detector Non-linearity: No (HR4C155)
Correct for Stray Light: No (HR4C155)
Number of Pixels in Processed Spectrum: 3648
>>>>>Begin Processed Spectral Data<<<<<
195.39	731.00
195.66	731.00
195.93	731.00
196.20	675.00
196.46	716.00
196.73	840.00
197.00	848.00
197.27	843.00
197.54	842.00
197.81	845.00
198.08	857.00
198.35	898.00
198.61	925.00
198.88	889.00
199.15	853.00
199.42	868.00
199.69	893.00
199.96	870.00
200.23	887.00
200.49	882.00
200.76	901.00
201.03	895.00
201.30	882.00
201.57	932.00
201.84	951.00
202.11	897.00
202.38	920.00
202.64	936.00
202.91	954.00
203.18	874.00
203.45	927.00
203.72	1012.00
203.99	929.00
204.25	936.00
204.52	921.00
204.79	940.00
205.06	937.00
205.33	885.00
205.60	896.00
205.87	936.00
206.13	954.00
206.40	917.00
206.67	904.00
206.94	932.00
207.21	928.00
207.48	915.00
207.75	905.00
208.01	956.00
208.28	941.00
208.55	887.00
208.82	915.00
209.09	918.00
209.36	941.00
209.62	914.00
209.89	942.00
210.16	946.00
210.43	973.00
210.70	902.00
210.97	914.00
211.23	926.00
211.50	947.00
211.77	895.00
212.04	910.00
212.31	920.00
212.58	956.00
212.84	917.00
213.11	902.00
213.38	882.00
213.65	914.00
213.92	905.00
214.18	914.00
214.45	958.00
214.72	945.00
214.99	899.00
215.26	922.00
215.53	909.00
215.79	951.00
216.06	945.00
216.33	924.00
216.60	906.00
216.87	947.00
217.13	873.00
217.40	885.00
217.67	933.00
217.94	966.00
218.21	886.00
218.48	928.00
218.74	961.00
219.01	932.00
219.28	855.00
219.55	877.00
219.82	933.00
220.08	934.00
220.35	888.00
220.62	903.00
220.89	947.00
221.16	969.00
221.42	920.00
221.69	917.00
221.96	929.00
222.23	955.00
222.50	947.00
222.76	947.00
223.03	918.00
223.30	905.00
223.57	880.00
223.84	877.00
224.10	887.00
224.37	922.00
224.64	886.00
224.91	910.00
225.18	932.00
225.44	940.00
225.71	906.00
225.98	933.00
226.25	967.00
226.51	974.00
226.78	904.00
227.05	906.00
227.32	912.00
227.59	925.00
227.85	937.00
228.12	921.00
228.39	964.00
228.66	958.00
228.92	950.00
229.19	923.00
229.46	943.00
229.73	916.00
230.00	885.00
230.26	915.00
230.53	952.00
230.80	932.00
231.07	859.00
231.33	867.00
231.60	931.00
231.87	962.00
232.14	906.00
232.41	958.00
232.67	939.00
232.94	942.00
233.21	902.00
233.48	910.00
233.74	918.00
234.01	911.00
234.28	881.00
234.55	899.00
234.81	922.00
235.08	955.00
235.35	915.00
235.62	893.00
235.88	898.00
236.15	946.00
236.42	920.00
236.69	913.00
236.95	931.00
237.22	911.00
237.49	908.00
237.76	900.00
238.02	933.00
238.29	945.00
238.56	907.00
238.83	905.00
239.09	908.00
239.36	940.00
239.63	895.00
239.90	911.00
240.16	964.00
240.43	994.00
240.70	925.00
240.97	920.00
241.23	917.00
241.50	936.00
241.77	897.00
242.04	906.00
242.30	890.00
242.57	916.00
242.84	882.00
243.11	909.00
243.37	898.00
243.64	930.00
243.91	900.00
244.18	890.00
244.44	884.00
244.71	908.00
244.98	904.00
245.24	918.00
245.51	923.00
245.78	952.00
246.05	894.00
246.31	893.00
246.58	936.00
246.85	913.00
247.12	899.00
247.38	932.00
247.65	928.00
247.92	952.00
248.18	914.00
248.45	923.00
248.72	927.00
248.99	934.00
249.25	872.00
249.52	884.00
249.79	925.00
250.05	933.00
250.32	904.00
250.59	900.00
250.86	911.00
251.12	926.00
251.39	891.00
251.66	909.00
251.92	948.00
252.19	947.00
252.46	895.00
252.73	941.00
252.99	957.00
253.26	949.00
253.53	885.00
253.79	906.00
254.06	928.00
254.33	911.00
254.60	886.00
254.86	890.00
255.13	923.00
255.40	968.00
255.66	920.00
255.93	923.00
256.20	950.00
256.46	951.00
256.73	918.00
257.00	915.00
257.26	938.00
257.53	944.00
257.80	920.00
258.07	936.00
258.33	987.00
258.60	944.00
258.87	888.00
259.13	910.00
259.40	913.00
259.67	957.00
259.93	916.00
260.20	936.00
260.47	953.00
260.73	920.00
261.00	894.00
261.27	914.00
261.53	939.00
261.80	919.00
262.07	869.00
262.34	904.00
262.60	894.00
262.87	929.00
263.14	892.00
263.40	930.00
263.67	897.00
263.94	898.00
264.20	917.00
264.47	894.00
264.74	900.00
265.00	916.00
265.27	884.00
265.54	899.00
265.80	929.00
266.07	948.00
266.34	899.00
266.60	908.00
266.87	937.00
267.14	943.00
267.40	898.00
267.67	881.00
267.94	915.00
268.20	915.00
268.47	884.00
268.74	902.00
269.00	918.00
269.27	906.00
269.54	869.00
269.80	879.00
270.07	940.00
270.33	890.00
270.60	881.00
270.87	909.00
271.13	921.00
271.40	936.00
271.67	847.00
271.93	860.00
272.20	918.00
272.47	882.00
272.73	853.00
273.00	895.00
273.27	904.00
273.53	941.00
273.80	889.00
274.07	882.00
274.33	875.00
274.60	922.00
274.86	901.00
275.13	913.00
275.40	883.00
275.66	923.00
275.93	881.00
276.20	896.00
276.46	901.00
276.73	905.00
277.00	895.00
277.26	910.00
277.53	914.00
277.79	906.00
278.06	886.00
278.33	925.00
278.59	930.00
278.86	895.00
279.13	906.00
279.39	898.00
279.66	946.00
279.93	956.00
280.19	898.00
280.46	888.00
280.72	882.00
280.99	922.00
281.26	900.00
281.52	893.00
281.79	919.00
282.05	935.00
282.32	896.00
282.59	905.00
282.85	936.00
283.12	926.00
283.39	903.00
283.65	908.00
283.92	935.00
284.18	954.00
284.45	920.00
284.72	912.00
284.98	906.00
285.25	895.00
285.51	914.00
285.78	910.00
286.05	905.00
286.31	909.00
286.58	874.00
286.84	885.00
287.11	912.00
287.38	935.00
287.64	913.00
287.91	882.00
288.17	926.00
288.44	925.00
288.71	884.00
288.97	907.00
289.24	928.00
289.50	917.00
289.77	906.00
290.04	867.00
290.30	899.00
290.57	953.00
290.83	889.00
291.10	877.00
291.37	910.00
291.63	921.00
291.90	929.00
292.16	904.00
292.43	922.00
292.70	910.00
292.96	869.00
293.23	883.00
293.49	899.00
293.76	922.00
294.02	892.00
294.29	877.00
294.56	908.00
294.82	932.00
295.09	894.00
295.35	884.00
295.62	944.00
295.89	969.00
296.15	861.00
296.42	884.00
296.68	917.00
296.95	912.00
297.21	904.00
297.48	903.00
297.75	909.00
298.01	929.00
298.28	883.00
298.54	907.00
298.81	916.00
299.07	913.00
299.34	864.00
299.61	905.00
299.87	927.00
300.14	932.00
300.40	938.00
300.67	911.00
300.93	916.00
301.20	954.00
301.46	889.00
301.73	905.00
302.00	926.00
302.26	913.00
302.53	890.00
302.79	897.00
303.06	915.00
303.32	950.00
303.59	862.00
303.85	874.00
304.12	910.00
304.39	937.00
304.65	908.00
304.92	892.00
305.18	910.00
305.45	928.00
305.71	888.00
305.98	925.00
306.24	918.00
306.51	895.00
306.77	894.00
307.04	900.00
307.31	944.00
307.57	932.00
307.84	881.00
308.10	902.00
308.37	893.00
308.63	906.00
308.90	879.00
309.16	927.00
309.43	936.00
309.69	922.00
309.96	892.00
310.22	891.00
310.49	910.00
310.76	921.00
311.02	875.00
311.29	889.00
311.55	915.00
311.82	927.00
312.08	914.00
312.35	918.00
312.61	921.00
312.88	926.00
313.14	877.00
313.41	870.00
313.67	882.00
313.94	919.00
314.20	900.00
314.47	920.00
314.73	900.00
315.00	893.00
315.26	885.00
315.53	903.00
315.79	908.00
316.06	928.00
316.32	904.00
316.59	918.00
316.85	879.00
317.12	937.00
317.39	875.00
317.65	900.00
317.92	913.00
318.18	927.00
318.45	912.00
318.71	958.00
318.98	939.00
319.24	912.00
319.51	903.00
319.77	895.00
320.04	899.00
320.30	924.00
320.57	900.00
320.83	898.00
321.10	878.00
321.36	900.00
321.63	870.00
321.89	897.00
322.16	945.00
322.42	933.00
322.69	887.00
322.95	889.00
323.22	925.00
323.48	939.00
323.75	891.00
324.01	904.00
324.28	933.00
324.54	913.00
324.80	891.00
325.07	916.00
325.33	925.00
325.60	908.00
325.86	875.00
326.13	895.00
326.39	892.00
326.66	896.00
326.92	840.00
327.19	888.00
327.45	949.00
327.72	935.00
327.98	885.00
328.25	875.00
328.51	917.00
328.78	900.00
329.04	870.00
329.31	897.00
329.57	917.00
329.84	907.00
330.10	882.00
330.37	906.00
330.63	937.00
330.89	951.00
331.16	887.00
331.42	890.00
331.69	923.00
331.95	911.00
332.22	896.00
332.48	926.00
332.75	913.00
333.01	897.00
333.28	872.00
333.54	903.00
333.81	912.00
334.07	923.00
334.34	903.00
334.60	910.00
334.86	951.00
335.13	953.00
335.39	926.00
335.66	902.00
335.92	923.00
336.19	920.00
336.45	849.00
336.72	878.00
336.98	893.00
337.24	914.00
337.51	887.00
337.77	888.00
338.04	903.00
338.30	927.00
338.57	868.00
338.83	902.00
339.10	920.00
339.36	927.00
339.63	885.00
339.89	869.00
340.15	898.00
340.42	941.00
340.68	915.00
340.95	912.00
341.21	917.00
341.48	923.00
341.74	878.00
342.00	882.00
342.27	914.00
342.53	908.00
342.80	878.00
343.06	872.00
343.33	914.00
343.59	937.00
343.85	893.00
344.12	907.00
344.38	964.00
344.65	954.00
344.91	889.00
345.18	892.00
345.44	917.00
345.70	890.00
345.97	867.00
346.23	881.00
346.50	924.00
346.76	906.00
347.03	902.00
347.29	908.00
347.55	922.00
347.82	888.00
348.08	845.00
348.35	862.00
348.61	950.00
348.87	920.00
349.14	865.00
349.40	889.00
349.67	928.00
349.93	914.00
350.20	900.00
350.46	915.00
350.72	943.00
350.99	908.00
351.25	885.00
351.52	885.00
351.78	907.00
352.04	915.00
352.31	905.00
352.57	908.00
352.84	901.00
353.10	910.00
353.36	903.00
353.63	901.00
353.89	906.00
354.16	925.00
354.42	919.00
354.68	893.00
354.95	946.00
355.21	939.00
355.48	900.00
355.74	929.00
356.00	962.00
356.27	954.00
356.53	882.00
356.80	874.00
357.06	928.00
357.32	921.00
357.59	919.00
357.85	927.00
358.11	952.00
358.38	930.00
358.64	890.00
358.91	885.00
359.17	906.00
359.43	931.00
359.70	890.00
359.96	901.00
360.22	923.00
360.49	894.00
360.75	887.00
361.02	885.00
361.28	907.00
361.54	924.00
361.81	861.00
362.07	893.00
362.33	903.00
362.60	899.00
362.86	875.00
363.13	905.00
363.39	921.00
363.65	932.00
363.92	854.00
364.18	868.00
364.44	914.00
364.71	911.00
364.97	889.00
365.24	893.00
365.50	940.00
365.76	930.00
366.03	897.00
366.29	908.00
366.55	909.00
366.82	898.00
367.08	867.00
367.34	897.00
367.61	918.00
367.87	931.00
368.13	894.00
368.40	915.00
368.66	969.00
368.93	936.00
369.19	873.00
369.45	870.00
369.72	910.00
369.98	910.00
370.24	871.00
370.51	881.00
370.77	914.00
371.03	922.00
371.30	906.00
371.56	918.00
371.82	931.00
372.09	917.00
372.35	912.00
372.61	917.00
372.88	911.00
373.14	924.00
373.40	884.00
373.67	899.00
373.93	934.00
374.19	946.00
374.46	877.00
374.72	900.00
374.98	918.00
375.25	929.00
375.51	914.00
375.77	927.00
376.04	939.00
376.30	937.00
376.56	868.00
376.83	875.00
377.09	893.00
377.35	909.00
377.62	891.00
377.88	890.00
378.14	885.00
378.41	914.00
378.67	891.00
378.93	892.00
379.20	934.00
379.46	902.00
379.72	884.00
379.99	893.00
380.25	905.00
380.51	882.00
380.77	881.00
381.04	902.00
381.30	922.00
381.56	930.00
381.83	904.00
382.09	869.00
382.35	897.00
382.62	934.00
382.88	913.00
383.14	902.00
383.41	918.00
383.67	913.00
383.93	892.00
384.20	895.00
384.46	916.00
384.72	931.00
384.98	881.00
385.25	923.00
385.51	933.00
385.77	899.00
386.04	877.00
386.30	862.00
386.56	919.00
386.82	958.00
387.09	899.00
387.35	922.00
387.61	990.00
387.88	943.00
388.14	924.00
388.40	913.00
388.67	906.00
388.93	901.00
389.19	879.00
389.45	884.00
389.72	901.00
389.98	919.00
390.24	906.00
390.51	897.00
390.77	909.00
391.03	925.00
391.29	878.00
391.56	901.00
391.82	927.00
392.08	966.00
392.35	908.00
392.61	898.00
392.87	912.00
393.13	930.00
393.40	876.00
393.66	885.00
393.92	917.00
394.18	927.00
394.45	883.00
394.71	882.00
394.97	901.00
395.24	881.00
395.50	873.00
395.76	911.00
396.02	926.00
396.29	933.00
396.55	877.00
396.81	853.00
397.07	898.00
397.34	888.00
397.60	857.00
397.86	871.00
398.12	900.00
398.39	940.00
398.65	880.00
398.91	889.00
399.17	893.00
399.44	867.00
399.70	836.00
399.96	863.00
400.22	886.00
400.49	948.00
400.75	905.00
401.01	904.00
401.27	913.00
401.54	937.00
401.80	891.00
402.06	880.00
402.32	915.00
402.59	899.00
402.85	880.00
403.11	886.00
403.37	886.00
403.64	928.00
403.90	892.00
404.16	892.00
404.42	903.00
404.69	885.00
404.95	875.00
405.21	855.00
405.47	892.00
405.74	933.00
406.00	891.00
406.26	881.00
406.52	910.00
406.79	928.00
407.05	885.00
407.31	890.00
407.57	861.00
407.83	915.00
408.10	862.00
408.36	887.00
408.62	905.00
408.88	887.00
409.15	858.00
409.41	855.00
409.67	885.00
409.93	947.00
410.20	928.00
410.46	885.00
410.72	880.00
410.98	901.00
411.24	875.00
411.51	888.00
411.77	905.00
412.03	922.00
412.29	913.00
412.55	901.00
412.82	911.00
413.08	913.00
413.34	885.00
413.60	886.00
413.87	917.00
414.13	920.00
414.39	867.00
414.65	897.00
414.91	920.00
415.18	906.00
415.44	876.00
415.70	873.00
415.96	915.00
416.22	917.00
416.49	876.00
416.75	885.00
417.01	888.00
417.27	895.00
417.53	877.00
417.80	883.00
418.06	914.00
418.32	931.00
418.58	872.00
418.84	865.00
419.11	908.00
419.37	929.00
419.63	887.00
419.89	904.00
420.15	906.00
420.42	905.00
420.68	872.00
420.94	882.00
421.20	909.00
421.46	912.00
421.72	897.00
421.99	895.00
422.25	910.00
422.51	913.00
422.77	899.00
423.03	913.00
423.30	918.00
423.56	928.00
423.82	917.00
424.08	909.00
424.34	915.00
424.60	913.00
424.87	885.00
425.13	873.00
425.39	893.00
425.65	901.00
425.91	883.00
426.18	908.00
426.44	908.00
426.70	903.00
426.96	843.00
427.22	857.00
427.48	881.00
427.75	884.00
428.01	841.00
428.27	885.00
428.53	914.00
428.79	888.00
429.05	868.00
429.32	874.00
429.58	923.00
429.84	906.00
430.10	900.00
430.36	897.00
430.62	923.00
430.88	938.00
431.15	903.00
431.41	909.00
431.67	913.00
431.93	894.00
432.19	865.00
432.45	888.00
432.72	903.00
432.98	901.00
433.24	909.00
433.50	988.00
433.76	914.00
434.02	877.00
434.28	868.00
434.55	884.00
434.81	898.00
435.07	916.00
435.33	867.00
435.59	862.00
435.85	897.00
436.11	916.00
436.38	862.00
436.64	865.00
436.90	882.00
437.16	884.00
437.42	866.00
437.68	880.00
437.94	901.00
438.21	924.00
438.47	917.00
438.73	923.00
438.99	894.00
439.25	890.00
439.51	876.00
439.77	889.00
440.03	891.00
440.30	909.00
440.56	893.00
440.82	912.00
441.08	916.00
441.34	910.00
441.60	863.00
441.86	898.00
442.12	906.00
442.39	903.00
442.65	892.00
442.91	884.00
443.17	906.00
443.43	924.00
443.69	900.00
443.95	885.00
444.21	895.00
444.47	919.00
444.74	850.00
445.00	873.00
445.26	887.00
445.52	900.00
445.78	869.00
446.04	882.00
446.30	933.00
446.56	936.00
446.82	877.00
447.09	883.00
447.35	927.00
447.61	910.00
447.87	894.00
448.13	902.00
448.39	944.00
448.65	921.00
448.91	870.00
449.17	893.00
449.43	899.00
449.70	897.00
449.96	851.00
450.22	874.00
450.48	909.00
450.74	952.00
451.00	894.00
451.26	890.00
451.52	901.00
451.78	903.00
452.04	883.00
452.31	934.00
452.57	926.00
452.83	900.00
453.09	882.00
453.35	898.00
453.61	915.00
453.87	917.00
454.13	917.00
454.39	924.00
454.65	957.00
454.91	967.00
455.17	881.00
455.44	890.00
455.70	898.00
455.96	901.00
456.22	861.00
456.48	885.00
456.74	904.00
457.00	870.00
457.26	825.00
457.52	889.00
457.78	897.00
458.04	903.00
458.30	843.00
458.56	878.00
458.82	902.00
459.09	877.00
459.35	828.00
459.61	857.00
459.87	908.00
460.13	921.00
460.39	875.00
460.65	851.00
460.91	909.00
461.17	890.00
461.43	862.00
461.69	876.00
461.95	918.00
462.21	893.00
462.47	882.00
462.73	905.00
462.99	924.00
463.26	910.00
463.52	846.00
463.78	849.00
464.04	884.00
464.30	886.00
464.56	885.00
464.82	893.00
465.08	929.00
465.34	935.00
465.60	908.00
465.86	891.00
466.12	903.00
466.38	878.00
466.64	846.00
466.90	875.00
467.16	899.00
467.42	910.00
467.68	877.00
467.94	879.00
468.20	926.00
468.46	903.00
468.72	876.00
468.98	910.00
469.25	920.00
469.51	880.00
469.77	895.00
470.03	902.00
470.29	903.00
470.55	906.00
470.81	879.00
471.07	905.00
471.33	923.00
471.59	918.00
471.85	895.00
472.11	901.00
472.37	911.00
472.63	889.00
472.89	879.00
473.15	890.00
473.41	913.00
473.67	901.00
473.93	855.00
474.19	861.00
474.45	878.00
474.71	891.00
474.97	869.00
475.23	866.00
475.49	887.00
475.75	879.00
476.01	882.00
476.27	889.00
476.53	916.00
476.79	916.00
477.05	874.00
477.31	861.00
477.57	906.00
477.83	898.00
478.09	847.00
478.35	891.00
478.61	925.00
478.87	918.00
479.13	866.00
479.39	901.00
479.65	924.00
479.91	924.00
480.17	906.00
480.43	920.00
480.69	894.00
480.95	909.00
481.21	876.00
481.47	886.00
481.73	892.00
481.99	888.00
482.25	862.00
482.51	862.00
482.77	899.00
483.03	904.00
483.29	892.00
483.55	884.00
483.81	907.00
484.07	914.00
484.33	862.00
484.59	869.00
484.85	928.00
485.11	913.00
485.37	888.00
485.63	889.00
485.89	888.00
486.15	886.00
486.41	866.00
486.67	898.00
486.93	909.00
487.19	884.00
487.45	880.00
487.71	859.00
487.97	924.00
488.23	905.00
488.49	869.00
488.75	865.00
489.01	899.00
489.27	931.00
489.53	873.00
489.79	869.00
490.05	900.00
490.31	921.00
490.57	894.00
490.83	944.00
491.08	895.00
491.34	885.00
491.60	873.00
491.86	887.00
492.12	918.00
492.38	933.00
492.64	867.00
492.90	880.00
493.16	911.00
493.42	870.00
493.68	853.00
493.94	895.00
494.20	877.00
494.46	883.00
494.72	865.00
494.98	873.00
495.24	880.00
495.50	902.00
495.76	887.00
496.02	913.00
496.28	943.00
496.54	922.00
496.80	883.00
497.05	856.00
497.31	925.00
497.57	926.00
497.83	883.00
498.09	901.00
498.35	933.00
498.61	909.00
498.87	893.00
499.13	893.00
499.39	886.00
499.65	890.00
499.91	884.00
500.17	887.00
500.43	971.00
500.69	978.00
500.95	881.00
501.20	906.00
501.46	907.00
501.72	907.00
501.98	903.00
502.24	905.00
502.50	942.00
502.76	898.00
503.02	873.00
503.28	881.00
503.54	940.00
503.80	959.00
504.06	918.00
504.32	916.00
504.58	928.00
504.83	914.00
505.09	875.00
505.35	898.00
505.61	889.00
505.87	903.00
506.13	891.00
506.39	880.00
506.65	914.00
506.91	947.00
507.17	882.00
507.43	882.00
507.68	906.00
507.94	918.00
508.20	880.00
508.46	866.00
508.72	945.00
508.98	931.00
509.24	854.00
509.50	890.00
509.76	885.00
510.02	889.00
510.28	868.00
510.53	872.00
510.79	913.00
511.05	910.00
511.31	883.00
511.57	887.00
511.83	903.00
512.09	917.00
512.35	876.00
512.61	901.00
512.87	907.00
513.12	911.00
513.38	866.00
513.64	881.00
513.90	902.00
514.16	950.00
514.42	906.00
514.68	896.00
514.94	909.00
515.20	927.00
515.45	877.00
515.71	878.00
515.97	906.00
516.23	904.00
516.49	861.00
516.75	880.00
517.01	906.00
517.27	896.00
517.53	863.00
517.78	879.00
518.04	905.00
518.30	895.00
518.56	868.00
518.82	903.00
519.08	930.00
519.34	887.00
519.60	876.00
519.85	893.00
520.11	892.00
520.37	898.00
520.63	877.00
520.89	899.00
521.15	893.00
521.41	897.00
521.66	871.00
521.92	880.00
522.18	918.00
522.44	917.00
522.70	880.00
522.96	858.00
523.22	906.00
523.48	889.00
523.73	871.00
523.99	875.00
524.25	941.00
524.51	930.00
524.77	863.00
525.03	869.00
525.29	904.00
525.54	926.00
525.80	889.00
526.06	880.00
526.32	892.00
526.58	891.00
526.84	879.00
527.09	865.00
527.35	870.00
527.61	890.00
527.87	868.00
528.13	905.00
528.39	901.00
528.65	883.00
528.90	841.00
529.16	860.00
529.42	875.00
529.68	882.00
529.94	876.00
530.20	878.00
530.45	874.00
530.71	896.00
530.97	866.00
531.23	881.00
531.49	892.00
531.75	883.00
532.00	878.00
532.26	863.00
532.52	903.00
532.78	895.00
533.04	873.00
533.30	891.00
533.55	901.00
533.81	903.00
534.07	860.00
534.33	861.00
534.59	897.00
534.85	907.00
535.10	876.00
535.36	868.00
535.62	907.00
535.88	883.00
