SpectraSuite Data File
++++++++++++++++++++++++++++++++++++
Date: Fri Dec 06 15:55:33 CET 2024
User: student
Dark Spectrum Present: No
Reference Spectrum Present: No
Number of Sampled Component Spectra: 1
Spectrometers: HR4C155
Integration Time (usec): 100000 (HR4C155)
Spectra Averaged: 1 (HR4C155)
Boxcar Smoothing: 0 (HR4C155)
Correct for Electrical Dark: No (HR4C155)
Strobe/Lamp Enabled: No (HR4C155)
Correct for Detector Non-linearity: No (HR4C155)
Correct for Stray Light: No (HR4C155)
Number of Pixels in Processed Spectrum: 3648
>>>>>Begin Processed Spectral Data<<<<<
195.39	652.00
195.66	652.00
195.93	652.00
196.20	684.00
196.46	726.00
196.73	828.00
197.00	845.00
197.27	836.00
197.54	861.00
197.81	860.00
198.08	856.00
198.35	898.00
198.61	905.00
198.88	860.00
199.15	866.00
199.42	885.00
199.69	885.00
199.96	871.00
200.23	889.00
200.49	877.00
200.76	906.00
201.03	892.00
201.30	878.00
201.57	938.00
201.84	951.00
202.11	912.00
202.38	918.00
202.64	937.00
202.91	944.00
203.18	865.00
203.45	942.00
203.72	999.00
203.99	932.00
204.25	925.00
204.52	919.00
204.79	930.00
205.06	941.00
205.33	886.00
205.60	905.00
205.87	928.00
206.13	948.00
206.40	916.00
206.67	904.00
206.94	946.00
207.21	936.00
207.48	914.00
207.75	909.00
208.01	935.00
208.28	939.00
208.55	902.00
208.82	927.00
209.09	916.00
209.36	936.00
209.62	916.00
209.89	931.00
210.16	943.00
210.43	968.00
210.70	890.00
210.97	892.00
211.23	938.00
211.50	966.00
211.77	897.00
212.04	909.00
212.31	913.00
212.58	954.00
212.84	906.00
213.11	903.00
213.38	882.00
213.65	917.00
213.92	887.00
214.18	899.00
214.45	946.00
214.72	943.00
214.99	897.00
215.26	905.00
215.53	887.00
215.79	936.00
216.06	929.00
216.33	938.00
216.60	910.00
216.87	929.00
217.13	868.00
217.40	877.00
217.67	925.00
217.94	965.00
218.21	881.00
218.48	930.00
218.74	985.00
219.01	947.00
219.28	879.00
219.55	890.00
219.82	936.00
220.08	933.00
220.35	903.00
220.62	904.00
220.89	949.00
221.16	984.00
221.42	925.00
221.69	907.00
221.96	948.00
222.23	958.00
222.50	936.00
222.76	924.00
223.03	920.00
223.30	912.00
223.57	896.00
223.84	867.00
224.10	890.00
224.37	920.00
224.64	898.00
224.91	934.00
225.18	953.00
225.44	957.00
225.71	904.00
225.98	924.00
226.25	959.00
226.51	968.00
226.78	916.00
227.05	905.00
227.32	921.00
227.59	921.00
227.85	906.00
228.12	898.00
228.39	951.00
228.66	958.00
228.92	965.00
229.19	922.00
229.46	949.00
229.73	918.00
230.00	898.00
230.26	920.00
230.53	955.00
230.80	938.00
231.07	876.00
231.33	885.00
231.60	907.00
231.87	927.00
232.14	901.00
232.41	959.00
232.67	944.00
232.94	940.00
233.21	893.00
233.48	920.00
233.74	925.00
234.01	912.00
234.28	887.00
234.55	913.00
234.81	907.00
235.08	950.00
235.35	908.00
235.62	903.00
235.88	905.00
236.15	932.00
236.42	925.00
236.69	918.00
236.95	957.00
237.22	916.00
237.49	900.00
237.76	920.00
238.02	953.00
238.29	966.00
238.56	913.00
238.83	901.00
239.09	923.00
239.36	943.00
239.63	909.00
239.90	920.00
240.16	967.00
240.43	979.00
240.70	909.00
240.97	909.00
241.23	900.00
241.50	925.00
241.77	911.00
242.04	899.00
242.30	885.00
242.57	903.00
242.84	875.00
243.11	891.00
243.37	886.00
243.64	948.00
243.91	904.00
244.18	901.00
244.44	906.00
244.71	897.00
244.98	892.00
245.24	897.00
245.51	925.00
245.78	943.00
246.05	875.00
246.31	895.00
246.58	933.00
246.85	901.00
247.12	898.00
247.38	932.00
247.65	938.00
247.92	940.00
248.18	915.00
248.45	924.00
248.72	923.00
248.99	934.00
249.25	879.00
249.52	898.00
249.79	926.00
250.05	935.00
250.32	897.00
250.59	903.00
250.86	905.00
251.12	916.00
251.39	886.00
251.66	923.00
251.92	950.00
252.19	955.00
252.46	907.00
252.73	948.00
252.99	953.00
253.26	957.00
253.53	901.00
253.79	931.00
254.06	940.00
254.33	912.00
254.60	878.00
254.86	889.00
255.13	930.00
255.40	949.00
255.66	892.00
255.93	926.00
256.20	936.00
256.46	932.00
256.73	894.00
257.00	922.00
257.26	934.00
257.53	941.00
257.80	920.00
258.07	921.00
258.33	966.00
258.60	948.00
258.87	894.00
259.13	920.00
259.40	908.00
259.67	956.00
259.93	903.00
260.20	925.00
260.47	943.00
260.73	911.00
261.00	895.00
261.27	913.00
261.53	946.00
261.80	912.00
262.07	876.00
262.34	924.00
262.60	891.00
262.87	917.00
263.14	886.00
263.40	921.00
263.67	919.00
263.94	926.00
264.20	895.00
264.47	877.00
264.74	900.00
265.00	915.00
265.27	880.00
265.54	899.00
265.80	952.00
266.07	961.00
266.34	885.00
266.60	912.00
266.87	939.00
267.14	930.00
267.40	891.00
267.67	882.00
267.94	920.00
268.20	901.00
268.47	885.00
268.74	893.00
269.00	907.00
269.27	899.00
269.54	866.00
269.80	879.00
270.07	952.00
270.33	930.00
270.60	906.00
270.87	921.00
271.13	922.00
271.40	929.00
271.67	868.00
271.93	868.00
272.20	920.00
272.47	899.00
272.73	870.00
273.00	913.00
273.27	901.00
273.53	946.00
273.80	902.00
274.07	881.00
274.33	902.00
274.60	947.00
274.86	918.00
275.13	902.00
275.40	895.00
275.66	940.00
275.93	891.00
276.20	905.00
276.46	904.00
276.73	907.00
277.00	890.00
277.26	908.00
277.53	928.00
277.79	925.00
278.06	901.00
278.33	962.00
278.59	948.00
278.86	886.00
279.13	904.00
279.39	916.00
279.66	937.00
279.93	933.00
280.19	881.00
280.46	901.00
280.72	915.00
280.99	942.00
281.26	900.00
281.52	894.00
281.79	922.00
282.05	923.00
282.32	899.00
282.59	894.00
282.85	928.00
283.12	942.00
283.39	922.00
283.65	930.00
283.92	927.00
284.18	937.00
284.45	912.00
284.72	904.00
284.98	899.00
285.25	927.00
285.51	930.00
285.78	921.00
286.05	914.00
286.31	928.00
286.58	885.00
286.84	881.00
287.11	904.00
287.38	915.00
287.64	930.00
287.91	895.00
288.17	924.00
288.44	932.00
288.71	873.00
288.97	895.00
289.24	931.00
289.50	924.00
289.77	915.00
290.04	875.00
290.30	892.00
290.57	922.00
290.83	869.00
291.10	891.00
291.37	935.00
291.63	923.00
291.90	914.00
292.16	906.00
292.43	924.00
292.70	899.00
292.96	862.00
293.23	874.00
293.49	885.00
293.76	945.00
294.02	895.00
294.29	893.00
294.56	922.00
294.82	945.00
295.09	900.00
295.35	885.00
295.62	953.00
295.89	962.00
296.15	884.00
296.42	873.00
296.68	898.00
296.95	909.00
297.21	917.00
297.48	911.00
297.75	917.00
298.01	935.00
298.28	901.00
298.54	923.00
298.81	922.00
299.07	928.00
299.34	891.00
299.61	892.00
299.87	925.00
300.14	919.00
300.40	933.00
300.67	909.00
300.93	923.00
301.20	972.00
301.46	881.00
301.73	908.00
302.00	933.00
302.26	912.00
302.53	905.00
302.79	889.00
303.06	927.00
303.32	961.00
303.59	881.00
303.85	883.00
304.12	892.00
304.39	922.00
304.65	900.00
304.92	899.00
305.18	922.00
305.45	927.00
305.71	895.00
305.98	901.00
306.24	909.00
306.51	907.00
306.77	887.00
307.04	902.00
307.31	949.00
307.57	932.00
307.84	859.00
308.10	903.00
308.37	880.00
308.63	914.00
308.90	884.00
309.16	905.00
309.43	927.00
309.69	917.00
309.96	905.00
310.22	906.00
310.49	905.00
310.76	927.00
311.02	877.00
311.29	908.00
311.55	906.00
311.82	912.00
312.08	907.00
312.35	904.00
312.61	930.00
312.88	947.00
313.14	901.00
313.41	893.00
313.67	883.00
313.94	918.00
314.20	917.00
314.47	908.00
314.73	902.00
315.00	893.00
315.26	872.00
315.53	913.00
315.79	922.00
316.06	926.00
316.32	902.00
316.59	926.00
316.85	921.00
317.12	922.00
317.39	862.00
317.65	893.00
317.92	890.00
318.18	906.00
318.45	897.00
318.71	948.00
318.98	943.00
319.24	936.00
319.51	914.00
319.77	916.00
320.04	902.00
320.30	917.00
320.57	881.00
320.83	886.00
321.10	879.00
321.36	908.00
321.63	878.00
321.89	893.00
322.16	932.00
322.42	929.00
322.69	876.00
322.95	878.00
323.22	918.00
323.48	939.00
323.75	884.00
324.01	891.00
324.28	919.00
324.54	938.00
324.80	902.00
325.07	911.00
325.33	932.00
325.60	921.00
325.86	873.00
326.13	883.00
326.39	908.00
326.66	901.00
326.92	837.00
327.19	890.00
327.45	949.00
327.72	964.00
327.98	893.00
328.25	889.00
328.51	918.00
328.78	911.00
329.04	875.00
329.31	908.00
329.57	908.00
329.84	908.00
330.10	882.00
330.37	913.00
330.63	936.00
330.89	948.00
331.16	890.00
331.42	887.00
331.69	932.00
331.95	917.00
332.22	915.00
332.48	939.00
332.75	924.00
333.01	889.00
333.28	881.00
333.54	887.00
333.81	909.00
334.07	927.00
334.34	922.00
334.60	906.00
334.86	941.00
335.13	956.00
335.39	894.00
335.66	898.00
335.92	943.00
336.19	946.00
336.45	862.00
336.72	894.00
336.98	898.00
337.24	932.00
337.51	888.00
337.77	911.00
338.04	930.00
338.30	919.00
338.57	873.00
338.83	898.00
339.10	931.00
339.36	915.00
339.63	883.00
339.89	863.00
340.15	909.00
340.42	933.00
340.68	929.00
340.95	938.00
341.21	929.00
341.48	911.00
341.74	861.00
342.00	862.00
342.27	924.00
342.53	926.00
342.80	891.00
343.06	880.00
343.33	894.00
343.59	940.00
343.85	894.00
344.12	911.00
344.38	965.00
344.65	958.00
344.91	905.00
345.18	892.00
345.44	914.00
345.70	890.00
345.97	853.00
346.23	883.00
346.50	940.00
346.76	928.00
347.03	919.00
347.29	905.00
347.55	888.00
347.82	893.00
348.08	861.00
348.35	886.00
348.61	956.00
348.87	934.00
349.14	858.00
349.40	876.00
349.67	915.00
349.93	901.00
350.20	899.00
350.46	910.00
350.72	923.00
350.99	907.00
351.25	886.00
351.52	882.00
351.78	900.00
352.04	921.00
352.31	888.00
352.57	897.00
352.84	891.00
353.10	910.00
353.36	907.00
353.63	893.00
353.89	902.00
354.16	916.00
354.42	897.00
354.68	880.00
354.95	922.00
355.21	920.00
355.48	893.00
355.74	940.00
356.00	949.00
356.27	950.00
356.53	880.00
356.80	877.00
357.06	921.00
357.32	930.00
357.59	912.00
357.85	929.00
358.11	963.00
358.38	926.00
358.64	905.00
358.91	898.00
359.17	897.00
359.43	917.00
359.70	903.00
359.96	919.00
360.22	937.00
360.49	915.00
360.75	900.00
361.02	882.00
361.28	899.00
361.54	928.00
361.81	875.00
362.07	889.00
362.33	890.00
362.60	896.00
362.86	879.00
363.13	907.00
363.39	933.00
363.65	933.00
363.92	849.00
364.18	860.00
364.44	915.00
364.71	924.00
364.97	891.00
365.24	905.00
365.50	935.00
365.76	937.00
366.03	892.00
366.29	915.00
366.55	923.00
366.82	911.00
367.08	866.00
367.34	893.00
367.61	927.00
367.87	940.00
368.13	897.00
368.40	884.00
368.66	949.00
368.93	923.00
369.19	858.00
369.45	863.00
369.72	925.00
369.98	928.00
370.24	885.00
370.51	898.00
370.77	924.00
371.03	915.00
371.30	899.00
371.56	914.00
371.82	942.00
372.09	922.00
372.35	912.00
372.61	904.00
372.88	905.00
373.14	895.00
373.40	885.00
373.67	884.00
373.93	903.00
374.19	925.00
374.46	883.00
374.72	886.00
374.98	918.00
375.25	925.00
375.51	907.00
375.77	923.00
376.04	921.00
376.30	922.00
376.56	879.00
376.83	901.00
377.09	908.00
377.35	918.00
377.62	898.00
377.88	872.00
378.14	901.00
378.41	927.00
378.67	892.00
378.93	888.00
379.20	912.00
379.46	887.00
379.72	869.00
379.99	890.00
380.25	903.00
380.51	882.00
380.77	879.00
381.04	901.00
381.30	917.00
381.56	941.00
381.83	920.00
382.09	895.00
382.35	906.00
382.62	916.00
382.88	921.00
383.14	894.00
383.41	917.00
383.67	907.00
383.93	899.00
384.20	892.00
384.46	915.00
384.72	937.00
384.98	885.00
385.25	906.00
385.51	922.00
385.77	910.00
386.04	882.00
386.30	879.00
386.56	939.00
386.82	969.00
387.09	891.00
387.35	899.00
387.61	969.00
387.88	945.00
388.14	902.00
388.40	907.00
388.67	905.00
388.93	906.00
389.19	893.00
389.45	898.00
389.72	911.00
389.98	929.00
390.24	906.00
390.51	885.00
390.77	935.00
391.03	931.00
391.29	872.00
391.56	903.00
391.82	909.00
392.08	965.00
392.35	907.00
392.61	894.00
392.87	912.00
393.13	940.00
393.40	890.00
393.66	890.00
393.92	910.00
394.18	900.00
394.45	867.00
394.71	879.00
394.97	901.00
395.24	895.00
395.50	868.00
395.76	899.00
396.02	914.00
396.29	928.00
396.55	868.00
396.81	841.00
397.07	878.00
397.34	871.00
397.60	862.00
397.86	872.00
398.12	888.00
398.39	932.00
398.65	884.00
398.91	892.00
399.17	906.00
399.44	865.00
399.70	830.00
399.96	871.00
400.22	883.00
400.49	934.00
400.75	908.00
401.01	892.00
401.27	902.00
401.54	920.00
401.80	890.00
402.06	874.00
402.32	924.00
402.59	919.00
402.85	880.00
403.11	896.00
403.37	884.00
403.64	927.00
403.90	874.00
404.16	888.00
404.42	910.00
404.69	909.00
404.95	885.00
405.21	851.00
405.47	893.00
405.74	929.00
406.00	893.00
406.26	877.00
406.52	901.00
406.79	920.00
407.05	883.00
407.31	898.00
407.57	891.00
407.83	905.00
408.10	844.00
408.36	877.00
408.62	904.00
408.88	898.00
409.15	877.00
409.41	851.00
409.67	882.00
409.93	923.00
410.20	913.00
410.46	883.00
410.72	886.00
410.98	906.00
411.24	883.00
411.51	884.00
411.77	894.00
412.03	912.00
412.29	914.00
412.55	928.00
412.82	890.00
413.08	920.00
413.34	896.00
413.60	916.00
413.87	912.00
414.13	926.00
414.39	875.00
414.65	899.00
414.91	926.00
415.18	907.00
415.44	876.00
415.70	871.00
415.96	908.00
416.22	916.00
416.49	870.00
416.75	869.00
417.01	889.00
417.27	904.00
417.53	873.00
417.80	899.00
418.06	922.00
418.32	931.00
418.58	879.00
418.84	872.00
419.11	916.00
419.37	919.00
419.63	878.00
419.89	880.00
420.15	888.00
420.42	910.00
420.68	874.00
420.94	883.00
421.20	911.00
421.46	907.00
421.72	903.00
421.99	889.00
422.25	893.00
422.51	907.00
422.77	895.00
423.03	900.00
423.30	908.00
423.56	931.00
423.82	914.00
424.08	904.00
424.34	923.00
424.60	919.00
424.87	882.00
425.13	874.00
425.39	877.00
425.65	895.00
425.91	854.00
426.18	888.00
426.44	914.00
426.70	871.00
426.96	838.00
427.22	841.00
427.48	886.00
427.75	898.00
428.01	822.00
428.27	877.00
428.53	918.00
428.79	880.00
429.05	870.00
429.32	878.00
429.58	916.00
429.84	898.00
430.10	881.00
430.36	894.00
430.62	918.00
430.88	916.00
431.15	901.00
431.41	908.00
431.67	912.00
431.93	892.00
432.19	862.00
432.45	884.00
432.72	907.00
432.98	908.00
433.24	925.00
433.50	989.00
433.76	899.00
434.02	894.00
434.28	870.00
434.55	878.00
434.81	918.00
435.07	936.00
435.33	855.00
435.59	865.00
435.85	897.00
436.11	917.00
436.38	870.00
436.64	870.00
436.90	899.00
437.16	905.00
437.42	885.00
437.68	887.00
437.94	911.00
438.21	916.00
438.47	917.00
438.73	899.00
438.99	897.00
439.25	905.00
439.51	869.00
439.77	884.00
440.03	897.00
440.30	911.00
440.56	884.00
440.82	904.00
441.08	909.00
441.34	912.00
441.60	864.00
441.86	886.00
442.12	925.00
442.39	931.00
442.65	903.00
442.91	888.00
443.17	881.00
443.43	906.00
443.69	901.00
443.95	897.00
444.21	914.00
444.47	924.00
444.74	881.00
445.00	897.00
445.26	894.00
445.52	909.00
445.78	871.00
446.04	854.00
446.30	914.00
446.56	913.00
446.82	867.00
447.09	888.00
447.35	900.00
447.61	908.00
447.87	893.00
448.13	911.00
448.39	938.00
448.65	923.00
448.91	863.00
449.17	879.00
449.43	913.00
449.70	913.00
449.96	859.00
450.22	872.00
450.48	897.00
450.74	934.00
451.00	873.00
451.26	872.00
451.52	896.00
451.78	894.00
452.04	878.00
452.31	908.00
452.57	927.00
452.83	891.00
453.09	864.00
453.35	888.00
453.61	925.00
453.87	916.00
454.13	900.00
454.39	907.00
454.65	963.00
454.91	955.00
455.17	885.00
455.44	871.00
455.70	905.00
455.96	917.00
456.22	872.00
456.48	881.00
456.74	895.00
457.00	861.00
457.26	826.00
457.52	860.00
457.78	885.00
458.04	925.00
458.30	863.00
458.56	880.00
458.82	899.00
459.09	877.00
459.35	846.00
459.61	870.00
459.87	922.00
460.13	924.00
460.39	869.00
460.65	867.00
460.91	916.00
461.17	893.00
461.43	859.00
461.69	865.00
461.95	892.00
462.21	910.00
462.47	890.00
462.73	916.00
462.99	923.00
463.26	902.00
463.52	856.00
463.78	852.00
464.04	862.00
464.30	883.00
464.56	869.00
464.82	891.00
465.08	936.00
465.34	941.00
465.60	896.00
465.86	890.00
466.12	899.00
466.38	877.00
466.64	857.00
466.90	870.00
467.16	898.00
467.42	906.00
467.68	883.00
467.94	906.00
468.20	923.00
468.46	898.00
468.72	869.00
468.98	897.00
469.25	918.00
469.51	880.00
469.77	900.00
470.03	894.00
470.29	896.00
470.55	915.00
470.81	877.00
471.07	900.00
471.33	920.00
471.59	933.00
471.85	882.00
472.11	885.00
472.37	898.00
472.63	894.00
472.89	909.00
473.15	887.00
473.41	905.00
473.67	905.00
473.93	839.00
474.19	867.00
474.45	878.00
474.71	890.00
474.97	866.00
475.23	875.00
475.49	892.00
475.75	884.00
476.01	904.00
476.27	919.00
476.53	934.00
476.79	925.00
477.05	882.00
477.31	887.00
477.57	908.00
477.83	901.00
478.09	843.00
478.35	876.00
478.61	932.00
478.87	897.00
479.13	856.00
479.39	899.00
479.65	923.00
479.91	919.00
480.17	893.00
480.43	920.00
480.69	887.00
480.95	907.00
481.21	874.00
481.47	886.00
481.73	903.00
481.99	891.00
482.25	862.00
482.51	872.00
482.77	928.00
483.03	909.00
483.29	898.00
483.55	892.00
483.81	929.00
484.07	916.00
484.33	868.00
484.59	878.00
484.85	900.00
485.11	906.00
485.37	889.00
485.63	873.00
485.89	865.00
486.15	885.00
486.41	862.00
486.67	884.00
486.93	892.00
487.19	894.00
487.45	885.00
487.71	869.00
487.97	924.00
488.23	928.00
488.49	877.00
488.75	880.00
489.01	902.00
489.27	936.00
489.53	887.00
489.79	894.00
490.05	899.00
490.31	922.00
490.57	903.00
490.83	937.00
491.08	890.00
491.34	898.00
491.60	866.00
491.86	899.00
492.12	914.00
492.38	924.00
492.64	848.00
492.90	876.00
493.16	925.00
493.42	883.00
493.68	879.00
493.94	894.00
494.20	879.00
494.46	904.00
494.72	861.00
494.98	886.00
495.24	907.00
495.50	894.00
495.76	894.00
496.02	899.00
496.28	920.00
496.54	918.00
496.80	893.00
497.05	871.00
497.31	912.00
497.57	901.00
497.83	863.00
498.09	890.00
498.35	930.00
498.61	917.00
498.87	895.00
499.13	901.00
499.39	906.00
499.65	902.00
499.91	899.00
500.17	882.00
500.43	955.00
500.69	981.00
500.95	884.00
501.20	915.00
501.46	927.00
501.72	930.00
501.98	921.00
502.24	911.00
502.50	927.00
502.76	901.00
503.02	878.00
503.28	879.00
503.54	949.00
503.80	953.00
504.06	898.00
504.32	905.00
504.58	907.00
504.83	888.00
505.09	886.00
505.35	894.00
505.61	883.00
505.87	915.00
506.13	902.00
506.39	879.00
506.65	916.00
506.91	930.00
507.17	898.00
507.43	881.00
507.68	894.00
507.94	920.00
508.20	872.00
508.46	867.00
508.72	938.00
508.98	938.00
509.24	875.00
509.50	892.00
509.76	885.00
510.02	902.00
510.28	863.00
510.53	873.00
510.79	901.00
511.05	901.00
511.31	859.00
511.57	876.00
511.83	916.00
512.09	924.00
512.35	869.00
512.61	878.00
512.87	902.00
513.12	916.00
513.38	874.00
513.64	905.00
513.90	925.00
514.16	919.00
514.42	879.00
514.68	898.00
514.94	931.00
515.20	935.00
515.45	881.00
515.71	890.00
515.97	902.00
516.23	915.00
516.49	888.00
516.75	889.00
517.01	906.00
517.27	894.00
517.53	856.00
517.78	876.00
518.04	899.00
518.30	906.00
518.56	868.00
518.82	901.00
519.08	938.00
519.34	891.00
519.60	888.00
519.85	903.00
520.11	887.00
520.37	902.00
520.63	870.00
520.89	898.00
521.15	910.00
521.41	907.00
521.66	875.00
521.92	874.00
522.18	924.00
522.44	935.00
522.70	882.00
522.96	854.00
523.22	910.00
523.48	914.00
523.73	869.00
523.99	875.00
524.25	949.00
524.51	928.00
524.77	858.00
525.03	862.00
525.29	911.00
525.54	912.00
525.80	868.00
526.06	874.00
526.32	887.00
526.58	892.00
526.84	870.00
527.09	861.00
527.35	882.00
527.61	883.00
527.87	867.00
528.13	904.00
528.39	899.00
528.65	896.00
528.90	859.00
529.16	879.00
529.42	868.00
529.68	902.00
529.94	874.00
530.20	878.00
530.45	892.00
530.71	905.00
530.97	861.00
531.23	883.00
531.49	898.00
531.75	889.00
532.00	873.00
532.26	874.00
532.52	898.00
532.78	884.00
533.04	853.00
533.30	860.00
533.55	900.00
533.81	904.00
534.07	854.00
534.33	870.00
534.59	905.00
534.85	906.00
535.10	873.00
535.36	867.00
535.62	905.00
535.88	911.00
