SpectraSuite Data File
++++++++++++++++++++++++++++++++++++
Date: Fri Dec 06 15:51:18 CET 2024
User: student
Dark Spectrum Present: No
Reference Spectrum Present: No
Number of Sampled Component Spectra: 1
Spectrometers: HR4C155
Integration Time (usec): 100000 (HR4C155)
Spectra Averaged: 1 (HR4C155)
Boxcar Smoothing: 0 (HR4C155)
Correct for Electrical Dark: No (HR4C155)
Strobe/Lamp Enabled: No (HR4C155)
Correct for Detector Non-linearity: No (HR4C155)
Correct for Stray Light: No (HR4C155)
Number of Pixels in Processed Spectrum: 3648
>>>>>Begin Processed Spectral Data<<<<<
195.39	710.00
195.66	710.00
195.93	710.00
196.20	660.00
196.46	694.00
196.73	839.00
197.00	850.00
197.27	838.00
197.54	853.00
197.81	859.00
198.08	850.00
198.35	885.00
198.61	885.00
198.88	852.00
199.15	871.00
199.42	887.00
199.69	900.00
199.96	873.00
200.23	891.00
200.49	875.00
200.76	908.00
201.03	874.00
201.30	882.00
201.57	931.00
201.84	943.00
202.11	887.00
202.38	899.00
202.64	927.00
202.91	922.00
203.18	879.00
203.45	949.00
203.72	1033.00
203.99	940.00
204.25	932.00
204.52	918.00
204.79	939.00
205.06	942.00
205.33	883.00
205.60	904.00
205.87	937.00
206.13	945.00
206.40	909.00
206.67	892.00
206.94	929.00
207.21	948.00
207.48	921.00
207.75	898.00
208.01	944.00
208.28	937.00
208.55	893.00
208.82	885.00
209.09	900.00
209.36	942.00
209.62	924.00
209.89	915.00
210.16	936.00
210.43	959.00
210.70	889.00
210.97	905.00
211.23	942.00
211.50	935.00
211.77	891.00
212.04	917.00
212.31	930.00
212.58	935.00
212.84	905.00
213.11	922.00
213.38	899.00
213.65	920.00
213.92	888.00
214.18	898.00
214.45	950.00
214.72	939.00
214.99	891.00
215.26	915.00
215.53	903.00
215.79	929.00
216.06	932.00
216.33	934.00
216.60	916.00
216.87	930.00
217.13	874.00
217.40	880.00
217.67	926.00
217.94	961.00
218.21	901.00
218.48	946.00
218.74	986.00
219.01	947.00
219.28	889.00
219.55	893.00
219.82	936.00
220.08	944.00
220.35	894.00
220.62	908.00
220.89	962.00
221.16	981.00
221.42	924.00
221.69	925.00
221.96	935.00
222.23	969.00
222.50	956.00
222.76	945.00
223.03	932.00
223.30	914.00
223.57	892.00
223.84	888.00
224.10	901.00
224.37	926.00
224.64	890.00
224.91	914.00
225.18	956.00
225.44	944.00
225.71	905.00
225.98	918.00
226.25	947.00
226.51	965.00
226.78	909.00
227.05	901.00
227.32	913.00
227.59	921.00
227.85	932.00
228.12	918.00
228.39	953.00
228.66	961.00
228.92	942.00
229.19	915.00
229.46	949.00
229.73	926.00
230.00	901.00
230.26	910.00
230.53	952.00
230.80	934.00
231.07	870.00
231.33	885.00
231.60	935.00
231.87	957.00
232.14	908.00
232.41	952.00
232.67	921.00
232.94	940.00
233.21	898.00
233.48	915.00
233.74	932.00
234.01	929.00
234.28	904.00
234.55	922.00
234.81	914.00
235.08	964.00
235.35	896.00
235.62	892.00
235.88	926.00
236.15	940.00
236.42	921.00
236.69	916.00
236.95	935.00
237.22	921.00
237.49	909.00
237.76	899.00
238.02	952.00
238.29	950.00
238.56	901.00
238.83	911.00
239.09	923.00
239.36	941.00
239.63	909.00
239.90	916.00
240.16	953.00
240.43	996.00
240.70	908.00
240.97	913.00
241.23	919.00
241.50	925.00
241.77	887.00
242.04	902.00
242.30	881.00
242.57	922.00
242.84	880.00
243.11	887.00
243.37	887.00
243.64	956.00
243.91	908.00
244.18	906.00
244.44	882.00
244.71	909.00
244.98	915.00
245.24	916.00
245.51	917.00
245.78	961.00
246.05	904.00
246.31	892.00
246.58	943.00
246.85	935.00
247.12	906.00
247.38	926.00
247.65	931.00
247.92	938.00
248.18	906.00
248.45	913.00
248.72	926.00
248.99	922.00
249.25	885.00
249.52	902.00
249.79	933.00
250.05	922.00
250.32	900.00
250.59	906.00
250.86	900.00
251.12	905.00
251.39	884.00
251.66	908.00
251.92	937.00
252.19	959.00
252.46	899.00
252.73	923.00
252.99	942.00
253.26	946.00
253.53	880.00
253.79	909.00
254.06	939.00
254.33	922.00
254.60	879.00
254.86	896.00
255.13	944.00
255.40	948.00
255.66	912.00
255.93	929.00
256.20	933.00
256.46	944.00
256.73	905.00
257.00	909.00
257.26	928.00
257.53	953.00
257.80	912.00
258.07	911.00
258.33	979.00
258.60	973.00
258.87	898.00
259.13	918.00
259.40	911.00
259.67	962.00
259.93	914.00
260.20	941.00
260.47	941.00
260.73	905.00
261.00	890.00
261.27	920.00
261.53	939.00
261.80	931.00
262.07	885.00
262.34	916.00
262.60	889.00
262.87	919.00
263.14	900.00
263.40	930.00
263.67	898.00
263.94	905.00
264.20	899.00
264.47	870.00
264.74	882.00
265.00	892.00
265.27	877.00
265.54	920.00
265.80	950.00
266.07	956.00
266.34	897.00
266.60	906.00
266.87	918.00
267.14	937.00
267.40	876.00
267.67	885.00
267.94	921.00
268.20	930.00
268.47	889.00
268.74	893.00
269.00	922.00
269.27	905.00
269.54	861.00
269.80	878.00
270.07	930.00
270.33	923.00
270.60	900.00
270.87	924.00
271.13	916.00
271.40	908.00
271.67	855.00
271.93	866.00
272.20	915.00
272.47	904.00
272.73	835.00
273.00	890.00
273.27	910.00
273.53	942.00
273.80	905.00
274.07	877.00
274.33	890.00
274.60	932.00
274.86	886.00
275.13	896.00
275.40	898.00
275.66	951.00
275.93	889.00
276.20	887.00
276.46	909.00
276.73	895.00
277.00	886.00
277.26	909.00
277.53	943.00
277.79	925.00
278.06	884.00
278.33	928.00
278.59	930.00
278.86	900.00
279.13	892.00
279.39	897.00
279.66	938.00
279.93	951.00
280.19	912.00
280.46	913.00
280.72	904.00
280.99	923.00
281.26	896.00
281.52	883.00
281.79	909.00
282.05	920.00
282.32	895.00
282.59	903.00
282.85	938.00
283.12	937.00
283.39	919.00
283.65	919.00
283.92	921.00
284.18	935.00
284.45	899.00
284.72	915.00
284.98	909.00
285.25	893.00
285.51	904.00
285.78	906.00
286.05	903.00
286.31	923.00
286.58	879.00
286.84	873.00
287.11	913.00
287.38	920.00
287.64	915.00
287.91	886.00
288.17	932.00
288.44	923.00
288.71	870.00
288.97	892.00
289.24	925.00
289.50	898.00
289.77	919.00
290.04	887.00
290.30	896.00
290.57	920.00
290.83	866.00
291.10	891.00
291.37	921.00
291.63	926.00
291.90	928.00
292.16	925.00
292.43	916.00
292.70	913.00
292.96	845.00
293.23	865.00
293.49	893.00
293.76	932.00
294.02	890.00
294.29	893.00
294.56	924.00
294.82	959.00
295.09	893.00
295.35	875.00
295.62	938.00
295.89	959.00
296.15	905.00
296.42	886.00
296.68	909.00
296.95	903.00
297.21	899.00
297.48	905.00
297.75	918.00
298.01	944.00
298.28	911.00
298.54	917.00
298.81	918.00
299.07	922.00
299.34	866.00
299.61	893.00
299.87	939.00
300.14	913.00
300.40	911.00
300.67	901.00
300.93	913.00
301.20	948.00
301.46	884.00
301.73	914.00
302.00	932.00
302.26	909.00
302.53	900.00
302.79	901.00
303.06	925.00
303.32	959.00
303.59	887.00
303.85	885.00
304.12	911.00
304.39	912.00
304.65	882.00
304.92	902.00
305.18	912.00
305.45	936.00
305.71	900.00
305.98	921.00
306.24	918.00
306.51	916.00
306.77	884.00
307.04	897.00
307.31	937.00
307.57	948.00
307.84	877.00
308.10	895.00
308.37	879.00
308.63	900.00
308.90	885.00
309.16	913.00
309.43	943.00
309.69	920.00
309.96	908.00
310.22	891.00
310.49	919.00
310.76	917.00
311.02	870.00
311.29	904.00
311.55	909.00
311.82	928.00
312.08	914.00
312.35	919.00
312.61	922.00
312.88	930.00
313.14	885.00
313.41	885.00
313.67	882.00
313.94	931.00
314.20	908.00
314.47	922.00
314.73	906.00
315.00	901.00
315.26	884.00
315.53	925.00
315.79	908.00
316.06	910.00
316.32	904.00
316.59	932.00
316.85	917.00
317.12	917.00
317.39	865.00
317.65	887.00
317.92	898.00
318.18	927.00
318.45	887.00
318.71	923.00
318.98	939.00
319.24	927.00
319.51	900.00
319.77	890.00
320.04	900.00
320.30	903.00
320.57	890.00
320.83	878.00
321.10	897.00
321.36	908.00
321.63	878.00
321.89	881.00
322.16	935.00
322.42	930.00
322.69	881.00
322.95	901.00
323.22	916.00
323.48	929.00
323.75	876.00
324.01	892.00
324.28	919.00
324.54	917.00
324.80	897.00
325.07	927.00
325.33	923.00
325.60	898.00
325.86	886.00
326.13	904.00
326.39	922.00
326.66	891.00
326.92	852.00
327.19	891.00
327.45	958.00
327.72	958.00
327.98	884.00
328.25	875.00
328.51	917.00
328.78	930.00
329.04	882.00
329.31	910.00
329.57	917.00
329.84	908.00
330.10	872.00
330.37	892.00
330.63	933.00
330.89	942.00
331.16	897.00
331.42	900.00
331.69	939.00
331.95	920.00
332.22	912.00
332.48	933.00
332.75	917.00
333.01	891.00
333.28	870.00
333.54	883.00
333.81	919.00
334.07	941.00
334.34	893.00
334.60	913.00
334.86	955.00
335.13	968.00
335.39	903.00
335.66	892.00
335.92	935.00
336.19	925.00
336.45	863.00
336.72	881.00
336.98	895.00
337.24	910.00
337.51	866.00
337.77	885.00
338.04	913.00
338.30	914.00
338.57	882.00
338.83	917.00
339.10	931.00
339.36	933.00
339.63	890.00
339.89	868.00
340.15	907.00
340.42	946.00
340.68	928.00
340.95	915.00
341.21	926.00
341.48	919.00
341.74	870.00
342.00	891.00
342.27	909.00
342.53	900.00
342.80	873.00
343.06	882.00
343.33	902.00
343.59	930.00
343.85	891.00
344.12	912.00
344.38	947.00
344.65	929.00
344.91	875.00
345.18	874.00
345.44	901.00
345.70	910.00
345.97	859.00
346.23	885.00
346.50	912.00
346.76	903.00
347.03	903.00
347.29	895.00
347.55	895.00
347.82	901.00
348.08	855.00
348.35	879.00
348.61	961.00
348.87	944.00
349.14	866.00
349.40	871.00
349.67	927.00
349.93	903.00
350.20	885.00
350.46	887.00
350.72	926.00
350.99	897.00
351.25	891.00
351.52	894.00
351.78	893.00
352.04	913.00
352.31	915.00
352.57	900.00
352.84	885.00
353.10	902.00
353.36	903.00
353.63	881.00
353.89	901.00
354.16	908.00
354.42	897.00
354.68	914.00
354.95	956.00
355.21	928.00
355.48	879.00
355.74	918.00
356.00	955.00
356.27	961.00
356.53	873.00
356.80	880.00
357.06	921.00
357.32	934.00
357.59	921.00
357.85	920.00
358.11	945.00
358.38	915.00
358.64	897.00
358.91	903.00
359.17	913.00
359.43	942.00
359.70	917.00
359.96	898.00
360.22	927.00
360.49	899.00
360.75	903.00
361.02	877.00
361.28	902.00
361.54	900.00
361.81	875.00
362.07	905.00
362.33	905.00
362.60	903.00
362.86	899.00
363.13	921.00
363.39	934.00
363.65	940.00
363.92	851.00
364.18	848.00
364.44	896.00
364.71	916.00
364.97	897.00
365.24	903.00
365.50	934.00
365.76	921.00
366.03	895.00
366.29	929.00
366.55	928.00
366.82	911.00
367.08	864.00
367.34	894.00
367.61	918.00
367.87	935.00
368.13	913.00
368.40	890.00
368.66	958.00
368.93	935.00
369.19	876.00
369.45	887.00
369.72	917.00
369.98	893.00
370.24	873.00
370.51	902.00
370.77	933.00
371.03	919.00
371.30	893.00
371.56	929.00
371.82	941.00
372.09	925.00
372.35	893.00
372.61	902.00
372.88	908.00
373.14	931.00
373.40	888.00
373.67	890.00
373.93	924.00
374.19	934.00
374.46	895.00
374.72	888.00
374.98	901.00
375.25	907.00
375.51	911.00
375.77	930.00
376.04	916.00
376.30	931.00
376.56	874.00
376.83	883.00
377.09	932.00
377.35	917.00
377.62	892.00
377.88	874.00
378.14	886.00
378.41	923.00
378.67	892.00
378.93	887.00
379.20	920.00
379.46	899.00
379.72	884.00
379.99	903.00
380.25	902.00
380.51	876.00
380.77	868.00
381.04	894.00
381.30	915.00
381.56	938.00
381.83	902.00
382.09	885.00
382.35	906.00
382.62	935.00
382.88	926.00
383.14	901.00
383.41	899.00
383.67	885.00
383.93	885.00
384.20	886.00
384.46	918.00
384.72	937.00
384.98	892.00
385.25	908.00
385.51	929.00
385.77	908.00
386.04	879.00
386.30	872.00
386.56	922.00
386.82	977.00
387.09	895.00
387.35	919.00
387.61	971.00
387.88	927.00
388.14	878.00
388.40	899.00
388.67	893.00
388.93	898.00
389.19	891.00
389.45	886.00
389.72	910.00
389.98	943.00
390.24	897.00
390.51	871.00
390.77	922.00
391.03	954.00
391.29	882.00
391.56	893.00
391.82	929.00
392.08	934.00
392.35	895.00
392.61	902.00
392.87	918.00
393.13	932.00
393.40	881.00
393.66	880.00
393.92	918.00
394.18	930.00
394.45	863.00
394.71	864.00
394.97	902.00
395.24	887.00
395.50	865.00
395.76	899.00
396.02	940.00
396.29	918.00
396.55	845.00
396.81	856.00
397.07	910.00
397.34	876.00
397.60	865.00
397.86	862.00
398.12	884.00
398.39	931.00
398.65	887.00
398.91	918.00
399.17	915.00
399.44	861.00
399.70	824.00
399.96	863.00
400.22	888.00
400.49	918.00
400.75	883.00
401.01	884.00
401.27	892.00
401.54	915.00
401.80	882.00
402.06	877.00
402.32	926.00
402.59	909.00
402.85	877.00
403.11	887.00
403.37	881.00
403.64	931.00
403.90	880.00
404.16	893.00
404.42	906.00
404.69	885.00
404.95	878.00
405.21	855.00
405.47	902.00
405.74	916.00
406.00	876.00
406.26	875.00
406.52	911.00
406.79	925.00
407.05	882.00
407.31	886.00
407.57	881.00
407.83	911.00
408.10	872.00
408.36	885.00
408.62	907.00
408.88	912.00
409.15	877.00
409.41	846.00
409.67	861.00
409.93	922.00
410.20	901.00
410.46	899.00
410.72	908.00
410.98	918.00
411.24	881.00
411.51	896.00
411.77	897.00
412.03	919.00
412.29	897.00
412.55	913.00
412.82	886.00
413.08	926.00
413.34	893.00
413.60	889.00
413.87	900.00
414.13	908.00
414.39	853.00
414.65	886.00
414.91	902.00
415.18	878.00
415.44	862.00
415.70	862.00
415.96	892.00
416.22	905.00
416.49	895.00
416.75	884.00
417.01	910.00
417.27	905.00
417.53	888.00
417.80	897.00
418.06	924.00
418.32	930.00
418.58	868.00
418.84	860.00
419.11	899.00
419.37	892.00
419.63	862.00
419.89	878.00
420.15	904.00
420.42	917.00
420.68	872.00
420.94	871.00
421.20	895.00
421.46	894.00
421.72	910.00
421.99	905.00
422.25	894.00
422.51	916.00
422.77	896.00
423.03	910.00
423.30	909.00
423.56	934.00
423.82	918.00
424.08	911.00
424.34	930.00
424.60	917.00
424.87	882.00
425.13	876.00
425.39	901.00
425.65	898.00
425.91	861.00
426.18	899.00
426.44	907.00
426.70	886.00
426.96	844.00
427.22	844.00
427.48	872.00
427.75	902.00
428.01	874.00
428.27	898.00
428.53	921.00
428.79	891.00
429.05	880.00
429.32	878.00
429.58	931.00
429.84	896.00
430.10	902.00
430.36	909.00
430.62	941.00
430.88	922.00
431.15	892.00
431.41	887.00
431.67	897.00
431.93	888.00
432.19	860.00
432.45	898.00
432.72	904.00
432.98	915.00
433.24	913.00
433.50	984.00
433.76	894.00
434.02	886.00
434.28	847.00
434.55	884.00
434.81	903.00
435.07	899.00
435.33	848.00
435.59	873.00
435.85	903.00
436.11	920.00
436.38	886.00
436.64	865.00
436.90	890.00
437.16	912.00
437.42	888.00
437.68	892.00
437.94	892.00
438.21	906.00
438.47	921.00
438.73	903.00
438.99	898.00
439.25	916.00
439.51	900.00
439.77	889.00
440.03	889.00
440.30	918.00
440.56	900.00
440.82	922.00
441.08	927.00
441.34	900.00
441.60	868.00
441.86	884.00
442.12	900.00
442.39	904.00
442.65	866.00
442.91	871.00
443.17	878.00
443.43	913.00
443.69	894.00
443.95	863.00
444.21	882.00
444.47	922.00
444.74	857.00
445.00	884.00
445.26	899.00
445.52	889.00
445.78	864.00
446.04	884.00
446.30	936.00
446.56	921.00
446.82	873.00
447.09	876.00
447.35	922.00
447.61	904.00
447.87	886.00
448.13	903.00
448.39	924.00
448.65	913.00
448.91	869.00
449.17	874.00
449.43	905.00
449.70	915.00
449.96	868.00
450.22	864.00
450.48	885.00
450.74	948.00
451.00	896.00
451.26	897.00
451.52	898.00
451.78	904.00
452.04	881.00
452.31	902.00
452.57	911.00
452.83	874.00
453.09	859.00
453.35	885.00
453.61	905.00
453.87	910.00
454.13	908.00
454.39	916.00
454.65	967.00
454.91	945.00
455.17	870.00
455.44	881.00
455.70	923.00
455.96	909.00
456.22	856.00
456.48	882.00
456.74	899.00
457.00	880.00
457.26	841.00
457.52	876.00
457.78	901.00
458.04	886.00
458.30	857.00
458.56	887.00
458.82	914.00
459.09	889.00
459.35	837.00
459.61	856.00
459.87	897.00
460.13	920.00
460.39	854.00
460.65	863.00
460.91	905.00
461.17	890.00
461.43	848.00
461.69	862.00
461.95	904.00
462.21	894.00
462.47	893.00
462.73	900.00
462.99	928.00
463.26	920.00
463.52	852.00
463.78	856.00
464.04	875.00
464.30	887.00
464.56	873.00
464.82	879.00
465.08	938.00
465.34	962.00
465.60	883.00
465.86	885.00
466.12	876.00
466.38	870.00
466.64	867.00
466.90	882.00
467.16	889.00
467.42	920.00
467.68	868.00
467.94	890.00
468.20	934.00
468.46	923.00
468.72	877.00
468.98	889.00
469.25	905.00
469.51	879.00
469.77	908.00
470.03	912.00
470.29	918.00
470.55	918.00
470.81	876.00
471.07	879.00
471.33	887.00
471.59	910.00
471.85	870.00
472.11	891.00
472.37	924.00
472.63	912.00
472.89	894.00
473.15	876.00
473.41	891.00
473.67	899.00
473.93	849.00
474.19	871.00
474.45	896.00
474.71	902.00
474.97	862.00
475.23	852.00
475.49	870.00
475.75	891.00
476.01	885.00
476.27	893.00
476.53	923.00
476.79	917.00
477.05	887.00
477.31	880.00
477.57	890.00
477.83	897.00
478.09	851.00
478.35	895.00
478.61	954.00
478.87	921.00
479.13	869.00
479.39	904.00
479.65	914.00
479.91	919.00
480.17	883.00
480.43	905.00
480.69	894.00
480.95	922.00
481.21	892.00
481.47	886.00
481.73	907.00
481.99	903.00
482.25	867.00
482.51	860.00
482.77	918.00
483.03	893.00
483.29	894.00
483.55	915.00
483.81	929.00
484.07	919.00
484.33	877.00
484.59	880.00
484.85	916.00
485.11	911.00
485.37	878.00
485.63	872.00
485.89	888.00
486.15	897.00
486.41	862.00
486.67	871.00
486.93	891.00
487.19	895.00
487.45	868.00
487.71	875.00
487.97	922.00
488.23	908.00
488.49	858.00
488.75	886.00
489.01	933.00
489.27	946.00
489.53	889.00
489.79	880.00
490.05	889.00
490.31	933.00
490.57	900.00
490.83	945.00
491.08	898.00
491.34	878.00
491.60	878.00
491.86	903.00
492.12	928.00
492.38	927.00
492.64	861.00
492.90	882.00
493.16	905.00
493.42	857.00
493.68	869.00
493.94	897.00
494.20	872.00
494.46	899.00
494.72	864.00
494.98	862.00
495.24	876.00
495.50	892.00
495.76	895.00
496.02	903.00
496.28	923.00
496.54	925.00
496.80	909.00
497.05	863.00
497.31	893.00
497.57	902.00
497.83	863.00
498.09	905.00
498.35	930.00
498.61	925.00
498.87	902.00
499.13	894.00
499.39	903.00
499.65	896.00
499.91	901.00
500.17	870.00
500.43	939.00
500.69	958.00
500.95	868.00
501.20	913.00
501.46	921.00
501.72	922.00
501.98	910.00
502.24	907.00
502.50	928.00
502.76	899.00
503.02	877.00
503.28	879.00
503.54	950.00
503.80	941.00
504.06	906.00
504.32	918.00
504.58	914.00
504.83	894.00
505.09	863.00
505.35	892.00
505.61	876.00
505.87	900.00
506.13	890.00
506.39	878.00
506.65	922.00
506.91	936.00
507.17	874.00
507.43	865.00
507.68	891.00
507.94	922.00
508.20	867.00
508.46	869.00
508.72	929.00
508.98	935.00
509.24	877.00
509.50	910.00
509.76	897.00
510.02	894.00
510.28	855.00
510.53	880.00
510.79	925.00
511.05	903.00
511.31	863.00
511.57	873.00
511.83	902.00
512.09	927.00
512.35	870.00
512.61	892.00
512.87	906.00
513.12	915.00
513.38	856.00
513.64	885.00
513.90	917.00
514.16	934.00
514.42	886.00
514.68	892.00
514.94	915.00
515.20	927.00
515.45	892.00
515.71	878.00
515.97	892.00
516.23	888.00
516.49	863.00
516.75	865.00
517.01	894.00
517.27	907.00
517.53	864.00
517.78	890.00
518.04	897.00
518.30	890.00
518.56	869.00
518.82	899.00
519.08	923.00
519.34	884.00
519.60	869.00
519.85	879.00
520.11	889.00
520.37	894.00
520.63	889.00
520.89	887.00
521.15	909.00
521.41	893.00
521.66	875.00
521.92	879.00
522.18	926.00
522.44	919.00
522.70	897.00
522.96	870.00
523.22	914.00
523.48	910.00
523.73	886.00
523.99	883.00
524.25	930.00
524.51	912.00
524.77	865.00
525.03	867.00
525.29	906.00
525.54	917.00
525.80	890.00
526.06	884.00
526.32	900.00
526.58	904.00
526.84	865.00
527.09	860.00
527.35	872.00
527.61	890.00
527.87	846.00
528.13	897.00
528.39	887.00
528.65	887.00
528.90	861.00
529.16	857.00
529.42	878.00
529.68	910.00
529.94	862.00
530.20	880.00
530.45	857.00
530.71	899.00
530.97	857.00
531.23	867.00
531.49	903.00
531.75	889.00
532.00	872.00
532.26	878.00
532.52	915.00
532.78	906.00
533.04	868.00
533.30	874.00
533.55	907.00
533.81	887.00
534.07	859.00
534.33	882.00
534.59	907.00
534.85	910.00
535.10	873.00
535.36	860.00
535.62	902.00
535.88	888.00
