SpectraSuite Data File
++++++++++++++++++++++++++++++++++++
Date: Fri Dec 06 15:53:02 CET 2024
User: student
Dark Spectrum Present: No
Reference Spectrum Present: No
Number of Sampled Component Spectra: 1
Spectrometers: HR4C155
Integration Time (usec): 100000 (HR4C155)
Spectra Averaged: 1 (HR4C155)
Boxcar Smoothing: 0 (HR4C155)
Correct for Electrical Dark: No (HR4C155)
Strobe/Lamp Enabled: No (HR4C155)
Correct for Detector Non-linearity: No (HR4C155)
Correct for Stray Light: No (HR4C155)
Number of Pixels in Processed Spectrum: 3648
>>>>>Begin Processed Spectral Data<<<<<
195.39	704.00
195.66	704.00
195.93	704.00
196.20	665.00
196.46	718.00
196.73	844.00
197.00	844.00
197.27	846.00
197.54	865.00
197.81	870.00
198.08	877.00
198.35	897.00
198.61	898.00
198.88	858.00
199.15	850.00
199.42	868.00
199.69	902.00
199.96	859.00
200.23	875.00
200.49	885.00
200.76	898.00
201.03	900.00
201.30	871.00
201.57	921.00
201.84	939.00
202.11	906.00
202.38	922.00
202.64	909.00
202.91	933.00
203.18	870.00
203.45	932.00
203.72	1018.00
203.99	926.00
204.25	926.00
204.52	935.00
204.79	937.00
205.06	936.00
205.33	871.00
205.60	916.00
205.87	953.00
206.13	954.00
206.40	905.00
206.67	884.00
206.94	921.00
207.21	924.00
207.48	914.00
207.75	901.00
208.01	945.00
208.28	941.00
208.55	894.00
208.82	922.00
209.09	917.00
209.36	950.00
209.62	925.00
209.89	927.00
210.16	933.00
210.43	977.00
210.70	894.00
210.97	916.00
211.23	937.00
211.50	972.00
211.77	902.00
212.04	907.00
212.31	922.00
212.58	961.00
212.84	927.00
213.11	914.00
213.38	886.00
213.65	913.00
213.92	902.00
214.18	917.00
214.45	962.00
214.72	953.00
214.99	892.00
215.26	905.00
215.53	901.00
215.79	933.00
216.06	942.00
216.33	932.00
216.60	905.00
216.87	940.00
217.13	863.00
217.40	896.00
217.67	917.00
217.94	945.00
218.21	884.00
218.48	940.00
218.74	995.00
219.01	950.00
219.28	888.00
219.55	887.00
219.82	930.00
220.08	946.00
220.35	905.00
220.62	910.00
220.89	954.00
221.16	972.00
221.42	917.00
221.69	924.00
221.96	948.00
222.23	961.00
222.50	939.00
222.76	945.00
223.03	916.00
223.30	914.00
223.57	888.00
223.84	897.00
224.10	906.00
224.37	933.00
224.64	892.00
224.91	903.00
225.18	961.00
225.44	942.00
225.71	902.00
225.98	929.00
226.25	955.00
226.51	964.00
226.78	887.00
227.05	910.00
227.32	932.00
227.59	929.00
227.85	922.00
228.12	922.00
228.39	948.00
228.66	947.00
228.92	955.00
229.19	927.00
229.46	931.00
229.73	921.00
230.00	891.00
230.26	913.00
230.53	946.00
230.80	949.00
231.07	876.00
231.33	881.00
231.60	926.00
231.87	935.00
232.14	909.00
232.41	947.00
232.67	948.00
232.94	951.00
233.21	887.00
233.48	931.00
233.74	944.00
234.01	927.00
234.28	892.00
234.55	901.00
234.81	912.00
235.08	945.00
235.35	892.00
235.62	908.00
235.88	938.00
236.15	954.00
236.42	927.00
236.69	929.00
236.95	939.00
237.22	913.00
237.49	907.00
237.76	916.00
238.02	938.00
238.29	949.00
238.56	898.00
238.83	895.00
239.09	901.00
239.36	933.00
239.63	901.00
239.90	916.00
240.16	954.00
240.43	991.00
240.70	909.00
240.97	917.00
241.23	921.00
241.50	933.00
241.77	898.00
242.04	900.00
242.30	880.00
242.57	900.00
242.84	888.00
243.11	916.00
243.37	884.00
243.64	954.00
243.91	897.00
244.18	904.00
244.44	886.00
244.71	892.00
244.98	908.00
245.24	917.00
245.51	928.00
245.78	959.00
246.05	884.00
246.31	905.00
246.58	944.00
246.85	917.00
247.12	905.00
247.38	940.00
247.65	913.00
247.92	947.00
248.18	917.00
248.45	918.00
248.72	914.00
248.99	913.00
249.25	883.00
249.52	910.00
249.79	930.00
250.05	930.00
250.32	909.00
250.59	916.00
250.86	930.00
251.12	922.00
251.39	900.00
251.66	931.00
251.92	935.00
252.19	952.00
252.46	901.00
252.73	949.00
252.99	951.00
253.26	965.00
253.53	901.00
253.79	928.00
254.06	930.00
254.33	897.00
254.60	877.00
254.86	881.00
255.13	929.00
255.40	952.00
255.66	914.00
255.93	941.00
256.20	963.00
256.46	936.00
256.73	893.00
257.00	931.00
257.26	939.00
257.53	938.00
257.80	926.00
258.07	937.00
258.33	972.00
258.60	951.00
258.87	891.00
259.13	922.00
259.40	914.00
259.67	962.00
259.93	905.00
260.20	916.00
260.47	950.00
260.73	945.00
261.00	886.00
261.27	920.00
261.53	934.00
261.80	933.00
262.07	886.00
262.34	910.00
262.60	888.00
262.87	920.00
263.14	893.00
263.40	929.00
263.67	914.00
263.94	915.00
264.20	915.00
264.47	866.00
264.74	881.00
265.00	900.00
265.27	887.00
265.54	895.00
265.80	935.00
266.07	953.00
266.34	900.00
266.60	901.00
266.87	930.00
267.14	938.00
267.40	909.00
267.67	885.00
267.94	920.00
268.20	928.00
268.47	888.00
268.74	898.00
269.00	926.00
269.27	923.00
269.54	851.00
269.80	886.00
270.07	943.00
270.33	908.00
270.60	912.00
270.87	942.00
271.13	920.00
271.40	914.00
271.67	861.00
271.93	869.00
272.20	924.00
272.47	891.00
272.73	863.00
273.00	893.00
273.27	902.00
273.53	945.00
273.80	921.00
274.07	888.00
274.33	892.00
274.60	926.00
274.86	901.00
275.13	901.00
275.40	891.00
275.66	954.00
275.93	891.00
276.20	888.00
276.46	896.00
276.73	901.00
277.00	887.00
277.26	933.00
277.53	956.00
277.79	917.00
278.06	901.00
278.33	947.00
278.59	923.00
278.86	894.00
279.13	901.00
279.39	914.00
279.66	959.00
279.93	942.00
280.19	890.00
280.46	893.00
280.72	906.00
280.99	940.00
281.26	899.00
281.52	891.00
281.79	927.00
282.05	938.00
282.32	892.00
282.59	910.00
282.85	940.00
283.12	940.00
283.39	901.00
283.65	929.00
283.92	940.00
284.18	949.00
284.45	903.00
284.72	906.00
284.98	924.00
285.25	906.00
285.51	924.00
285.78	910.00
286.05	918.00
286.31	923.00
286.58	872.00
286.84	878.00
287.11	886.00
287.38	925.00
287.64	915.00
287.91	885.00
288.17	933.00
288.44	923.00
288.71	859.00
288.97	889.00
289.24	930.00
289.50	902.00
289.77	900.00
290.04	867.00
290.30	888.00
290.57	945.00
290.83	884.00
291.10	877.00
291.37	913.00
291.63	903.00
291.90	914.00
292.16	901.00
292.43	929.00
292.70	911.00
292.96	865.00
293.23	871.00
293.49	903.00
293.76	926.00
294.02	887.00
294.29	901.00
294.56	920.00
294.82	930.00
295.09	894.00
295.35	873.00
295.62	945.00
295.89	946.00
296.15	876.00
296.42	874.00
296.68	905.00
296.95	919.00
297.21	924.00
297.48	894.00
297.75	915.00
298.01	951.00
298.28	898.00
298.54	904.00
298.81	928.00
299.07	921.00
299.34	856.00
299.61	899.00
299.87	930.00
300.14	922.00
300.40	923.00
300.67	910.00
300.93	930.00
301.20	974.00
301.46	891.00
301.73	892.00
302.00	918.00
302.26	895.00
302.53	908.00
302.79	913.00
303.06	926.00
303.32	974.00
303.59	880.00
303.85	869.00
304.12	898.00
304.39	922.00
304.65	903.00
304.92	894.00
305.18	918.00
305.45	931.00
305.71	900.00
305.98	903.00
306.24	920.00
306.51	917.00
306.77	893.00
307.04	910.00
307.31	931.00
307.57	934.00
307.84	878.00
308.10	902.00
308.37	902.00
308.63	898.00
308.90	873.00
309.16	908.00
309.43	934.00
309.69	902.00
309.96	892.00
310.22	903.00
310.49	925.00
310.76	923.00
311.02	870.00
311.29	891.00
311.55	911.00
311.82	908.00
312.08	891.00
312.35	917.00
312.61	920.00
312.88	918.00
313.14	889.00
313.41	893.00
313.67	885.00
313.94	927.00
314.20	909.00
314.47	916.00
314.73	913.00
315.00	884.00
315.26	874.00
315.53	914.00
315.79	929.00
316.06	946.00
316.32	893.00
316.59	918.00
316.85	911.00
317.12	916.00
317.39	872.00
317.65	898.00
317.92	886.00
318.18	918.00
318.45	894.00
318.71	942.00
318.98	958.00
319.24	941.00
319.51	916.00
319.77	898.00
320.04	908.00
320.30	910.00
320.57	878.00
320.83	887.00
321.10	866.00
321.36	881.00
321.63	862.00
321.89	872.00
322.16	933.00
322.42	921.00
322.69	901.00
322.95	900.00
323.22	922.00
323.48	938.00
323.75	883.00
324.01	899.00
324.28	908.00
324.54	927.00
324.80	890.00
325.07	924.00
325.33	937.00
325.60	910.00
325.86	861.00
326.13	900.00
326.39	902.00
326.66	882.00
326.92	870.00
327.19	901.00
327.45	948.00
327.72	946.00
327.98	877.00
328.25	861.00
328.51	910.00
328.78	923.00
329.04	890.00
329.31	917.00
329.57	918.00
329.84	911.00
330.10	877.00
330.37	890.00
330.63	941.00
330.89	963.00
331.16	905.00
331.42	905.00
331.69	940.00
331.95	922.00
332.22	901.00
332.48	933.00
332.75	906.00
333.01	882.00
333.28	888.00
333.54	890.00
333.81	911.00
334.07	939.00
334.34	918.00
334.60	899.00
334.86	958.00
335.13	972.00
335.39	925.00
335.66	908.00
335.92	925.00
336.19	928.00
336.45	854.00
336.72	866.00
336.98	890.00
337.24	921.00
337.51	876.00
337.77	889.00
338.04	902.00
338.30	914.00
338.57	881.00
338.83	900.00
339.10	927.00
339.36	922.00
339.63	875.00
339.89	861.00
340.15	888.00
340.42	927.00
340.68	922.00
340.95	921.00
341.21	927.00
341.48	921.00
341.74	870.00
342.00	875.00
342.27	910.00
342.53	929.00
342.80	886.00
343.06	901.00
343.33	925.00
343.59	936.00
343.85	911.00
344.12	917.00
344.38	965.00
344.65	951.00
344.91	890.00
345.18	875.00
345.44	893.00
345.70	887.00
345.97	849.00
346.23	886.00
346.50	919.00
346.76	924.00
347.03	907.00
347.29	907.00
347.55	906.00
347.82	894.00
348.08	849.00
348.35	877.00
348.61	954.00
348.87	936.00
349.14	884.00
349.40	874.00
349.67	920.00
349.93	911.00
350.20	896.00
350.46	900.00
350.72	935.00
350.99	901.00
351.25	899.00
351.52	906.00
351.78	899.00
352.04	898.00
352.31	903.00
352.57	891.00
352.84	895.00
353.10	914.00
353.36	909.00
353.63	897.00
353.89	906.00
354.16	926.00
354.42	907.00
354.68	913.00
354.95	950.00
355.21	934.00
355.48	888.00
355.74	929.00
356.00	950.00
356.27	939.00
356.53	872.00
356.80	885.00
357.06	919.00
357.32	933.00
357.59	913.00
357.85	921.00
358.11	969.00
358.38	945.00
358.64	911.00
358.91	901.00
359.17	913.00
359.43	934.00
359.70	929.00
359.96	921.00
360.22	940.00
360.49	918.00
360.75	894.00
361.02	884.00
361.28	889.00
361.54	911.00
361.81	877.00
362.07	909.00
362.33	891.00
362.60	892.00
362.86	884.00
363.13	913.00
363.39	928.00
363.65	931.00
363.92	867.00
364.18	861.00
364.44	912.00
364.71	926.00
364.97	901.00
365.24	885.00
365.50	926.00
365.76	923.00
366.03	899.00
366.29	930.00
366.55	945.00
366.82	905.00
367.08	867.00
367.34	903.00
367.61	930.00
367.87	931.00
368.13	922.00
368.40	893.00
368.66	949.00
368.93	950.00
369.19	870.00
369.45	895.00
369.72	934.00
369.98	919.00
370.24	881.00
370.51	886.00
370.77	917.00
371.03	917.00
371.30	899.00
371.56	941.00
371.82	939.00
372.09	919.00
372.35	894.00
372.61	888.00
372.88	898.00
373.14	908.00
373.40	904.00
373.67	901.00
373.93	921.00
374.19	934.00
374.46	886.00
374.72	874.00
374.98	907.00
375.25	913.00
375.51	902.00
375.77	922.00
376.04	926.00
376.30	935.00
376.56	889.00
376.83	901.00
377.09	923.00
377.35	928.00
377.62	902.00
377.88	894.00
378.14	912.00
378.41	930.00
378.67	899.00
378.93	901.00
379.20	927.00
379.46	894.00
379.72	877.00
379.99	876.00
380.25	887.00
380.51	876.00
380.77	865.00
381.04	882.00
381.30	922.00
381.56	948.00
381.83	911.00
382.09	902.00
382.35	903.00
382.62	924.00
382.88	919.00
383.14	914.00
383.41	899.00
383.67	897.00
383.93	909.00
384.20	905.00
384.46	923.00
384.72	937.00
384.98	873.00
385.25	894.00
385.51	926.00
385.77	906.00
386.04	891.00
386.30	870.00
386.56	927.00
386.82	966.00
387.09	902.00
387.35	937.00
387.61	983.00
387.88	923.00
388.14	904.00
388.40	913.00
388.67	889.00
388.93	896.00
389.19	892.00
389.45	876.00
389.72	905.00
389.98	926.00
390.24	891.00
390.51	889.00
390.77	926.00
391.03	941.00
391.29	885.00
391.56	906.00
391.82	927.00
392.08	948.00
392.35	895.00
392.61	886.00
392.87	911.00
393.13	947.00
393.40	906.00
393.66	899.00
393.92	919.00
394.18	906.00
394.45	863.00
394.71	877.00
394.97	912.00
395.24	897.00
395.50	891.00
395.76	905.00
396.02	919.00
396.29	917.00
396.55	874.00
396.81	866.00
397.07	902.00
397.34	898.00
397.60	871.00
397.86	870.00
398.12	887.00
398.39	919.00
398.65	880.00
398.91	885.00
399.17	913.00
399.44	867.00
399.70	837.00
399.96	875.00
400.22	897.00
400.49	938.00
400.75	882.00
401.01	894.00
401.27	886.00
401.54	922.00
401.80	878.00
402.06	889.00
402.32	931.00
402.59	903.00
402.85	873.00
403.11	897.00
403.37	897.00
403.64	927.00
403.90	877.00
404.16	878.00
404.42	895.00
404.69	884.00
404.95	877.00
405.21	876.00
405.47	904.00
405.74	930.00
406.00	888.00
406.26	872.00
406.52	910.00
406.79	922.00
407.05	890.00
407.31	907.00
407.57	914.00
407.83	924.00
408.10	868.00
408.36	873.00
408.62	899.00
408.88	894.00
409.15	877.00
409.41	849.00
409.67	876.00
409.93	934.00
410.20	902.00
410.46	891.00
410.72	880.00
410.98	916.00
411.24	886.00
411.51	889.00
411.77	883.00
412.03	899.00
412.29	905.00
412.55	914.00
412.82	901.00
413.08	935.00
413.34	910.00
413.60	897.00
413.87	901.00
414.13	927.00
414.39	869.00
414.65	899.00
414.91	920.00
415.18	897.00
415.44	866.00
415.70	870.00
415.96	895.00
416.22	905.00
416.49	881.00
416.75	877.00
417.01	898.00
417.27	892.00
417.53	890.00
417.80	903.00
418.06	922.00
418.32	925.00
418.58	883.00
418.84	890.00
419.11	903.00
419.37	916.00
419.63	869.00
419.89	884.00
420.15	915.00
420.42	921.00
420.68	883.00
420.94	897.00
421.20	898.00
421.46	913.00
421.72	909.00
421.99	905.00
422.25	915.00
422.51	896.00
422.77	876.00
423.03	902.00
423.30	890.00
423.56	914.00
423.82	922.00
424.08	911.00
424.34	905.00
424.60	911.00
424.87	880.00
425.13	868.00
425.39	903.00
425.65	893.00
425.91	868.00
426.18	902.00
426.44	911.00
426.70	872.00
426.96	851.00
427.22	862.00
427.48	886.00
427.75	885.00
428.01	849.00
428.27	877.00
428.53	913.00
428.79	892.00
429.05	866.00
429.32	876.00
429.58	910.00
429.84	887.00
430.10	905.00
430.36	915.00
430.62	927.00
430.88	919.00
431.15	882.00
431.41	900.00
431.67	914.00
431.93	891.00
432.19	858.00
432.45	895.00
432.72	916.00
432.98	910.00
433.24	910.00
433.50	988.00
433.76	884.00
434.02	871.00
434.28	861.00
434.55	888.00
434.81	927.00
435.07	921.00
435.33	857.00
435.59	878.00
435.85	900.00
436.11	902.00
436.38	881.00
436.64	893.00
436.90	900.00
437.16	894.00
437.42	865.00
437.68	892.00
437.94	905.00
438.21	926.00
438.47	921.00
438.73	901.00
438.99	909.00
439.25	911.00
439.51	892.00
439.77	901.00
440.03	910.00
440.30	920.00
440.56	889.00
440.82	914.00
441.08	933.00
441.34	920.00
441.60	874.00
441.86	895.00
442.12	915.00
442.39	901.00
442.65	869.00
442.91	886.00
443.17	896.00
443.43	915.00
443.69	896.00
443.95	863.00
444.21	884.00
444.47	923.00
444.74	871.00
445.00	887.00
445.26	877.00
445.52	893.00
445.78	857.00
446.04	874.00
446.30	921.00
446.56	927.00
446.82	876.00
447.09	885.00
447.35	919.00
447.61	921.00
447.87	890.00
448.13	896.00
448.39	959.00
448.65	924.00
448.91	863.00
449.17	873.00
449.43	888.00
449.70	905.00
449.96	856.00
450.22	877.00
450.48	912.00
450.74	938.00
451.00	895.00
451.26	881.00
451.52	873.00
451.78	869.00
452.04	868.00
452.31	901.00
452.57	915.00
452.83	891.00
453.09	868.00
453.35	889.00
453.61	907.00
453.87	907.00
454.13	905.00
454.39	909.00
454.65	961.00
454.91	949.00
455.17	878.00
455.44	897.00
455.70	921.00
455.96	925.00
456.22	875.00
456.48	886.00
456.74	926.00
457.00	881.00
457.26	829.00
457.52	875.00
457.78	895.00
458.04	904.00
458.30	848.00
458.56	876.00
458.82	881.00
459.09	885.00
459.35	842.00
459.61	861.00
459.87	901.00
460.13	940.00
460.39	884.00
460.65	869.00
460.91	924.00
461.17	893.00
461.43	854.00
461.69	864.00
461.95	890.00
462.21	891.00
462.47	901.00
462.73	913.00
462.99	923.00
463.26	907.00
463.52	863.00
463.78	862.00
464.04	884.00
464.30	910.00
464.56	877.00
464.82	893.00
465.08	927.00
465.34	932.00
465.60	890.00
465.86	898.00
466.12	898.00
466.38	883.00
466.64	875.00
466.90	891.00
467.16	912.00
467.42	906.00
467.68	870.00
467.94	880.00
468.20	926.00
468.46	916.00
468.72	877.00
468.98	899.00
469.25	918.00
469.51	887.00
469.77	887.00
470.03	893.00
470.29	914.00
470.55	918.00
470.81	889.00
471.07	896.00
471.33	902.00
471.59	912.00
471.85	879.00
472.11	892.00
472.37	913.00
472.63	897.00
472.89	901.00
473.15	882.00
473.41	900.00
473.67	895.00
473.93	855.00
474.19	854.00
474.45	868.00
474.71	889.00
474.97	861.00
475.23	868.00
475.49	896.00
475.75	892.00
476.01	888.00
476.27	908.00
476.53	942.00
476.79	927.00
477.05	893.00
477.31	886.00
477.57	910.00
477.83	907.00
478.09	840.00
478.35	889.00
478.61	924.00
478.87	905.00
479.13	862.00
479.39	911.00
479.65	921.00
479.91	920.00
480.17	889.00
480.43	906.00
480.69	879.00
480.95	913.00
481.21	880.00
481.47	908.00
481.73	923.00
481.99	905.00
482.25	860.00
482.51	858.00
482.77	907.00
483.03	918.00
483.29	890.00
483.55	889.00
483.81	917.00
484.07	912.00
484.33	871.00
484.59	889.00
484.85	922.00
485.11	916.00
485.37	877.00
485.63	879.00
485.89	895.00
486.15	875.00
486.41	865.00
486.67	895.00
486.93	907.00
487.19	884.00
487.45	881.00
487.71	875.00
487.97	913.00
488.23	926.00
488.49	867.00
488.75	871.00
489.01	916.00
489.27	929.00
489.53	880.00
489.79	875.00
490.05	891.00
490.31	935.00
490.57	917.00
490.83	944.00
491.08	895.00
491.34	873.00
491.60	847.00
491.86	893.00
492.12	931.00
492.38	929.00
492.64	877.00
492.90	857.00
493.16	916.00
493.42	882.00
493.68	862.00
493.94	901.00
494.20	889.00
494.46	901.00
494.72	866.00
494.98	875.00
495.24	892.00
495.50	905.00
495.76	881.00
496.02	905.00
496.28	938.00
496.54	923.00
496.80	883.00
497.05	858.00
497.31	899.00
497.57	916.00
497.83	866.00
498.09	893.00
498.35	937.00
498.61	915.00
498.87	884.00
499.13	894.00
499.39	910.00
499.65	909.00
499.91	887.00
500.17	865.00
500.43	970.00
500.69	991.00
500.95	891.00
501.20	919.00
501.46	905.00
501.72	903.00
501.98	915.00
502.24	908.00
502.50	941.00
502.76	893.00
503.02	876.00
503.28	909.00
503.54	949.00
503.80	953.00
504.06	918.00
504.32	925.00
504.58	915.00
504.83	887.00
505.09	880.00
505.35	890.00
505.61	880.00
505.87	904.00
506.13	894.00
506.39	879.00
506.65	909.00
506.91	939.00
507.17	881.00
507.43	886.00
507.68	888.00
507.94	920.00
508.20	881.00
508.46	855.00
508.72	933.00
508.98	940.00
509.24	866.00
509.50	903.00
509.76	905.00
510.02	908.00
510.28	878.00
510.53	882.00
510.79	910.00
511.05	900.00
511.31	873.00
511.57	898.00
511.83	904.00
512.09	916.00
512.35	869.00
512.61	878.00
512.87	908.00
513.12	925.00
513.38	856.00
513.64	881.00
513.90	908.00
514.16	938.00
514.42	897.00
514.68	916.00
514.94	938.00
515.20	918.00
515.45	881.00
515.71	878.00
515.97	896.00
516.23	903.00
516.49	874.00
516.75	882.00
517.01	903.00
517.27	893.00
517.53	862.00
517.78	878.00
518.04	876.00
518.30	882.00
518.56	864.00
518.82	897.00
519.08	937.00
519.34	870.00
519.60	862.00
519.85	881.00
520.11	903.00
520.37	904.00
520.63	868.00
520.89	888.00
521.15	894.00
521.41	889.00
521.66	862.00
521.92	870.00
522.18	901.00
522.44	907.00
522.70	882.00
522.96	846.00
523.22	903.00
523.48	898.00
523.73	873.00
523.99	878.00
524.25	935.00
524.51	911.00
524.77	857.00
525.03	874.00
525.29	901.00
525.54	917.00
525.80	865.00
526.06	895.00
526.32	898.00
526.58	896.00
526.84	862.00
527.09	856.00
527.35	884.00
527.61	895.00
527.87	857.00
528.13	901.00
528.39	905.00
528.65	899.00
528.90	853.00
529.16	874.00
529.42	865.00
529.68	880.00
529.94	853.00
530.20	890.00
530.45	883.00
530.71	896.00
530.97	865.00
531.23	870.00
531.49	893.00
531.75	906.00
532.00	878.00
532.26	866.00
532.52	894.00
532.78	888.00
533.04	881.00
533.30	882.00
533.55	893.00
533.81	887.00
534.07	850.00
534.33	881.00
534.59	909.00
534.85	889.00
535.10	877.00
535.36	869.00
535.62	884.00
535.88	885.00
