SpectraSuite Data File
++++++++++++++++++++++++++++++++++++
Date: Fri Nov 29 15:17:03 CET 2024
User: student
Dark Spectrum Present: No
Reference Spectrum Present: No
Number of Sampled Component Spectra: 1
Spectrometers: HR4C155
Integration Time (usec): 100000 (HR4C155)
Spectra Averaged: 1 (HR4C155)
Boxcar Smoothing: 0 (HR4C155)
Correct for Electrical Dark: No (HR4C155)
Strobe/Lamp Enabled: No (HR4C155)
Correct for Detector Non-linearity: No (HR4C155)
Correct for Stray Light: No (HR4C155)
Number of Pixels in Processed Spectrum: 3648
>>>>>Begin Processed Spectral Data<<<<<
195.39	731.00
195.66	731.00
195.93	731.00
196.20	714.00
196.46	764.00
196.73	878.00
197.00	898.00
197.27	895.00
197.54	913.00
197.81	906.00
198.08	915.00
198.35	937.00
198.61	935.00
198.88	909.00
199.15	894.00
199.42	933.00
199.69	952.00
199.96	912.00
200.23	915.00
200.49	920.00
200.76	947.00
201.03	934.00
201.30	922.00
201.57	963.00
201.84	984.00
202.11	944.00
202.38	971.00
202.64	951.00
202.91	967.00
203.18	892.00
203.45	965.00
203.72	1039.00
203.99	981.00
204.25	979.00
204.52	965.00
204.79	989.00
205.06	972.00
205.33	922.00
205.60	945.00
205.87	986.00
206.13	987.00
206.40	940.00
206.67	939.00
206.94	965.00
207.21	973.00
207.48	939.00
207.75	946.00
208.01	995.00
208.28	972.00
208.55	914.00
208.82	952.00
209.09	958.00
209.36	982.00
209.62	974.00
209.89	966.00
210.16	995.00
210.43	1012.00
210.70	942.00
210.97	957.00
211.23	980.00
211.50	1002.00
211.77	946.00
212.04	955.00
212.31	974.00
212.58	993.00
212.84	959.00
213.11	952.00
213.38	932.00
213.65	957.00
213.92	945.00
214.18	947.00
214.45	1002.00
214.72	1001.00
214.99	934.00
215.26	953.00
215.53	960.00
215.79	984.00
216.06	982.00
216.33	974.00
216.60	949.00
216.87	980.00
217.13	917.00
217.40	965.00
217.67	989.00
217.94	998.00
218.21	940.00
218.48	984.00
218.74	1013.00
219.01	985.00
219.28	921.00
219.55	924.00
219.82	972.00
220.08	983.00
220.35	936.00
220.62	949.00
220.89	988.00
221.16	1015.00
221.42	963.00
221.69	948.00
221.96	977.00
222.23	990.00
222.50	981.00
222.76	979.00
223.03	961.00
223.30	965.00
223.57	931.00
223.84	929.00
224.10	932.00
224.37	972.00
224.64	916.00
224.91	957.00
225.18	991.00
225.44	986.00
225.71	948.00
225.98	967.00
226.25	1001.00
226.51	1002.00
226.78	935.00
227.05	934.00
227.32	961.00
227.59	971.00
227.85	965.00
228.12	943.00
228.39	1001.00
228.66	1004.00
228.92	988.00
229.19	942.00
229.46	978.00
229.73	964.00
230.00	916.00
230.26	956.00
230.53	982.00
230.80	982.00
231.07	914.00
231.33	928.00
231.60	967.00
231.87	975.00
232.14	936.00
232.41	981.00
232.67	953.00
232.94	976.00
233.21	937.00
233.48	945.00
233.74	969.00
234.01	964.00
234.28	934.00
234.55	956.00
234.81	947.00
235.08	1004.00
235.35	946.00
235.62	954.00
235.88	965.00
236.15	972.00
236.42	944.00
236.69	961.00
236.95	994.00
237.22	961.00
237.49	943.00
237.76	940.00
238.02	984.00
238.29	982.00
238.56	932.00
238.83	945.00
239.09	944.00
239.36	989.00
239.63	933.00
239.90	945.00
240.16	997.00
240.43	1020.00
240.70	933.00
240.97	938.00
241.23	957.00
241.50	989.00
241.77	954.00
242.04	941.00
242.30	919.00
242.57	947.00
242.84	925.00
243.11	933.00
243.37	930.00
243.64	1003.00
243.91	936.00
244.18	941.00
244.44	933.00
244.71	936.00
244.98	962.00
245.24	944.00
245.51	969.00
245.78	1007.00
246.05	927.00
246.31	939.00
246.58	981.00
246.85	947.00
247.12	937.00
247.38	976.00
247.65	959.00
247.92	983.00
248.18	955.00
248.45	969.00
248.72	959.00
248.99	976.00
249.25	918.00
249.52	938.00
249.79	968.00
250.05	974.00
250.32	951.00
250.59	948.00
250.86	963.00
251.12	950.00
251.39	922.00
251.66	953.00
251.92	990.00
252.19	985.00
252.46	935.00
252.73	968.00
252.99	976.00
253.26	995.00
253.53	934.00
253.79	966.00
254.06	964.00
254.33	952.00
254.60	911.00
254.86	933.00
255.13	980.00
255.40	998.00
255.66	942.00
255.93	968.00
256.20	996.00
256.46	996.00
256.73	944.00
257.00	954.00
257.26	980.00
257.53	982.00
257.80	970.00
258.07	948.00
258.33	997.00
258.60	992.00
258.87	934.00
259.13	970.00
259.40	952.00
259.67	1000.00
259.93	961.00
260.20	974.00
260.47	977.00
260.73	961.00
261.00	934.00
261.27	954.00
261.53	975.00
261.80	961.00
262.07	915.00
262.34	963.00
262.60	938.00
262.87	959.00
263.14	918.00
263.40	978.00
263.67	948.00
263.94	951.00
264.20	945.00
264.47	910.00
264.74	938.00
265.00	942.00
265.27	909.00
265.54	936.00
265.80	974.00
266.07	998.00
266.34	939.00
266.60	961.00
266.87	1001.00
267.14	989.00
267.40	935.00
267.67	918.00
267.94	951.00
268.20	968.00
268.47	926.00
268.74	940.00
269.00	977.00
269.27	941.00
269.54	889.00
269.80	914.00
270.07	977.00
270.33	934.00
270.60	931.00
270.87	955.00
271.13	964.00
271.40	958.00
271.67	892.00
271.93	901.00
272.20	944.00
272.47	941.00
272.73	898.00
273.00	931.00
273.27	961.00
273.53	1000.00
273.80	965.00
274.07	944.00
274.33	944.00
274.60	969.00
274.86	942.00
275.13	934.00
275.40	945.00
275.66	993.00
275.93	937.00
276.20	921.00
276.46	955.00
276.73	939.00
277.00	945.00
277.26	954.00
277.53	985.00
277.79	977.00
278.06	942.00
278.33	982.00
278.59	969.00
278.86	938.00
279.13	923.00
279.39	946.00
279.66	986.00
279.93	988.00
280.19	937.00
280.46	929.00
280.72	955.00
280.99	988.00
281.26	937.00
281.52	915.00
281.79	965.00
282.05	974.00
282.32	934.00
282.59	931.00
282.85	988.00
283.12	977.00
283.39	926.00
283.65	941.00
283.92	959.00
284.18	973.00
284.45	941.00
284.72	962.00
284.98	970.00
285.25	951.00
285.51	965.00
285.78	959.00
286.05	938.00
286.31	950.00
286.58	905.00
286.84	911.00
287.11	940.00
287.38	954.00
287.64	952.00
287.91	931.00
288.17	953.00
288.44	958.00
288.71	899.00
288.97	942.00
289.24	984.00
289.50	962.00
289.77	946.00
290.04	914.00
290.30	936.00
290.57	982.00
290.83	938.00
291.10	944.00
291.37	965.00
291.63	950.00
291.90	968.00
292.16	952.00
292.43	965.00
292.70	967.00
292.96	912.00
293.23	915.00
293.49	942.00
293.76	961.00
294.02	928.00
294.29	924.00
294.56	973.00
294.82	980.00
295.09	946.00
295.35	935.00
295.62	991.00
295.89	988.00
296.15	928.00
296.42	914.00
296.68	932.00
296.95	968.00
297.21	958.00
297.48	937.00
297.75	960.00
298.01	989.00
298.28	942.00
298.54	958.00
298.81	982.00
299.07	989.00
299.34	932.00
299.61	936.00
299.87	973.00
300.14	954.00
300.40	961.00
300.67	944.00
300.93	985.00
301.20	1002.00
301.46	917.00
301.73	934.00
302.00	958.00
302.26	945.00
302.53	951.00
302.79	949.00
303.06	975.00
303.32	990.00
303.59	917.00
303.85	924.00
304.12	932.00
304.39	963.00
304.65	936.00
304.92	948.00
305.18	956.00
305.45	964.00
305.71	927.00
305.98	949.00
306.24	937.00
306.51	947.00
306.77	937.00
307.04	945.00
307.31	982.00
307.57	978.00
307.84	915.00
308.10	935.00
308.37	938.00
308.63	950.00
308.90	929.00
309.16	939.00
309.43	972.00
309.69	946.00
309.96	942.00
310.22	933.00
310.49	970.00
310.76	972.00
311.02	937.00
311.29	949.00
311.55	960.00
311.82	969.00
312.08	938.00
312.35	939.00
312.61	975.00
312.88	1001.00
313.14	928.00
313.41	918.00
313.67	919.00
313.94	966.00
314.20	934.00
314.47	964.00
314.73	958.00
315.00	965.00
315.26	924.00
315.53	962.00
315.79	964.00
316.06	953.00
316.32	940.00
316.59	969.00
316.85	957.00
317.12	978.00
317.39	920.00
317.65	931.00
317.92	936.00
318.18	968.00
318.45	946.00
318.71	996.00
318.98	996.00
319.24	984.00
319.51	944.00
319.77	970.00
320.04	950.00
320.30	945.00
320.57	926.00
320.83	932.00
321.10	927.00
321.36	945.00
321.63	905.00
321.89	914.00
322.16	972.00
322.42	974.00
322.69	923.00
322.95	918.00
323.22	962.00
323.48	985.00
323.75	949.00
324.01	944.00
324.28	966.00
324.54	969.00
324.80	936.00
325.07	945.00
325.33	966.00
325.60	942.00
325.86	926.00
326.13	929.00
326.39	936.00
326.66	912.00
326.92	877.00
327.19	926.00
327.45	989.00
327.72	1008.00
327.98	919.00
328.25	917.00
328.51	958.00
328.78	961.00
329.04	922.00
329.31	954.00
329.57	958.00
329.84	959.00
330.10	914.00
330.37	937.00
330.63	985.00
330.89	999.00
331.16	938.00
331.42	935.00
331.69	965.00
331.95	939.00
332.22	920.00
332.48	979.00
332.75	978.00
333.01	937.00
333.28	921.00
333.54	940.00
333.81	962.00
334.07	964.00
334.34	942.00
334.60	964.00
334.86	1000.00
335.13	997.00
335.39	938.00
335.66	944.00
335.92	966.00
336.19	964.00
336.45	910.00
336.72	940.00
336.98	946.00
337.24	974.00
337.51	906.00
337.77	933.00
338.04	976.00
338.30	956.00
338.57	918.00
338.83	956.00
339.10	960.00
339.36	960.00
339.63	939.00
339.89	911.00
340.15	949.00
340.42	968.00
340.68	954.00
340.95	958.00
341.21	956.00
341.48	972.00
341.74	917.00
342.00	919.00
342.27	955.00
342.53	970.00
342.80	933.00
343.06	935.00
343.33	949.00
343.59	978.00
343.85	931.00
344.12	956.00
344.38	1006.00
344.65	980.00
344.91	927.00
345.18	932.00
345.44	927.00
345.70	929.00
345.97	889.00
346.23	930.00
346.50	966.00
346.76	963.00
347.03	951.00
347.29	942.00
347.55	938.00
347.82	951.00
348.08	885.00
348.35	917.00
348.61	1009.00
348.87	964.00
349.14	900.00
349.40	899.00
349.67	948.00
349.93	932.00
350.20	929.00
350.46	944.00
350.72	977.00
350.99	958.00
351.25	951.00
351.52	936.00
351.78	952.00
352.04	972.00
352.31	941.00
352.57	952.00
352.84	917.00
353.10	940.00
353.36	927.00
353.63	928.00
353.89	945.00
354.16	954.00
354.42	950.00
354.68	945.00
354.95	980.00
355.21	963.00
355.48	916.00
355.74	960.00
356.00	993.00
356.27	989.00
356.53	926.00
356.80	910.00
357.06	959.00
357.32	988.00
357.59	970.00
357.85	963.00
358.11	996.00
358.38	975.00
358.64	940.00
358.91	953.00
359.17	952.00
359.43	976.00
359.70	941.00
359.96	939.00
360.22	971.00
360.49	969.00
360.75	922.00
361.02	924.00
361.28	952.00
361.54	958.00
361.81	908.00
362.07	924.00
362.33	938.00
362.60	941.00
362.86	914.00
363.13	943.00
363.39	972.00
363.65	962.00
363.92	902.00
364.18	915.00
364.44	950.00
364.71	971.00
364.97	928.00
365.24	924.00
365.50	955.00
365.76	975.00
366.03	917.00
366.29	950.00
366.55	969.00
366.82	932.00
367.08	893.00
367.34	925.00
367.61	961.00
367.87	977.00
368.13	937.00
368.40	934.00
368.66	986.00
368.93	977.00
369.19	913.00
369.45	910.00
369.72	950.00
369.98	939.00
370.24	897.00
370.51	922.00
370.77	953.00
371.03	958.00
371.30	950.00
371.56	955.00
371.82	968.00
372.09	959.00
372.35	947.00
372.61	959.00
372.88	968.00
373.14	973.00
373.40	951.00
373.67	939.00
373.93	962.00
374.19	981.00
374.46	939.00
374.72	921.00
374.98	961.00
375.25	970.00
375.51	945.00
375.77	953.00
376.04	969.00
376.30	967.00
376.56	909.00
376.83	937.00
377.09	968.00
377.35	965.00
377.62	957.00
377.88	941.00
378.14	932.00
378.41	972.00
378.67	943.00
378.93	945.00
379.20	985.00
379.46	964.00
379.72	928.00
379.99	920.00
380.25	936.00
380.51	930.00
380.77	912.00
381.04	922.00
381.30	964.00
381.56	983.00
381.83	945.00
382.09	930.00
382.35	940.00
382.62	971.00
382.88	953.00
383.14	942.00
383.41	951.00
383.67	932.00
383.93	946.00
384.20	940.00
384.46	961.00
384.72	967.00
384.98	926.00
385.25	956.00
385.51	989.00
385.77	954.00
386.04	907.00
386.30	905.00
386.56	980.00
386.82	1015.00
387.09	953.00
387.35	979.00
387.61	1032.00
387.88	973.00
388.14	920.00
388.40	947.00
388.67	935.00
388.93	933.00
389.19	926.00
389.45	928.00
389.72	956.00
389.98	970.00
390.24	924.00
390.51	911.00
390.77	963.00
391.03	971.00
391.29	932.00
391.56	932.00
391.82	955.00
392.08	999.00
392.35	934.00
392.61	942.00
392.87	965.00
393.13	988.00
393.40	929.00
393.66	922.00
393.92	962.00
394.18	968.00
394.45	911.00
394.71	915.00
394.97	948.00
395.24	932.00
395.50	908.00
395.76	951.00
396.02	967.00
396.29	949.00
396.55	888.00
396.81	866.00
397.07	935.00
397.34	937.00
397.60	910.00
397.86	907.00
398.12	938.00
398.39	980.00
398.65	935.00
398.91	936.00
399.17	947.00
399.44	909.00
399.70	867.00
399.96	901.00
400.22	920.00
400.49	963.00
400.75	941.00
401.01	946.00
401.27	939.00
401.54	969.00
401.80	920.00
402.06	915.00
402.32	969.00
402.59	956.00
402.85	922.00
403.11	944.00
403.37	928.00
403.64	969.00
403.90	919.00
404.16	937.00
404.42	947.00
404.69	934.00
404.95	916.00
405.21	909.00
405.47	930.00
405.74	952.00
406.00	924.00
406.26	929.00
406.52	965.00
406.79	986.00
407.05	930.00
407.31	942.00
407.57	944.00
407.83	951.00
408.10	887.00
408.36	907.00
408.62	943.00
408.88	947.00
409.15	919.00
409.41	884.00
409.67	909.00
409.93	960.00
410.20	942.00
410.46	925.00
410.72	926.00
410.98	949.00
411.24	922.00
411.51	951.00
411.77	932.00
412.03	951.00
412.29	949.00
412.55	961.00
412.82	952.00
413.08	974.00
413.34	945.00
413.60	939.00
413.87	955.00
414.13	964.00
414.39	915.00
414.65	949.00
414.91	968.00
415.18	929.00
415.44	898.00
415.70	908.00
415.96	934.00
416.22	960.00
416.49	930.00
416.75	929.00
417.01	958.00
417.27	961.00
417.53	936.00
417.80	946.00
418.06	970.00
418.32	970.00
418.58	907.00
418.84	918.00
419.11	954.00
419.37	963.00
419.63	927.00
419.89	938.00
420.15	946.00
420.42	937.00
420.68	908.00
420.94	945.00
421.20	932.00
421.46	936.00
421.72	958.00
421.99	935.00
422.25	950.00
422.51	962.00
422.77	934.00
423.03	940.00
423.30	969.00
423.56	969.00
423.82	970.00
424.08	942.00
424.34	969.00
424.60	972.00
424.87	921.00
425.13	919.00
425.39	945.00
425.65	943.00
425.91	921.00
426.18	933.00
426.44	951.00
426.70	908.00
426.96	881.00
427.22	887.00
427.48	917.00
427.75	935.00
428.01	883.00
428.27	921.00
428.53	974.00
428.79	936.00
429.05	909.00
429.32	915.00
429.58	976.00
429.84	932.00
430.10	925.00
430.36	942.00
430.62	970.00
430.88	978.00
431.15	956.00
431.41	954.00
431.67	955.00
431.93	945.00
432.19	899.00
432.45	944.00
432.72	958.00
432.98	949.00
433.24	964.00
433.50	1050.00
433.76	953.00
434.02	949.00
434.28	918.00
434.55	920.00
434.81	945.00
435.07	965.00
435.33	904.00
435.59	929.00
435.85	941.00
436.11	969.00
436.38	914.00
436.64	913.00
436.90	937.00
437.16	940.00
437.42	927.00
437.68	916.00
437.94	948.00
438.21	962.00
438.47	949.00
438.73	939.00
438.99	940.00
439.25	944.00
439.51	914.00
439.77	920.00
440.03	949.00
440.30	961.00
440.56	943.00
440.82	957.00
441.08	990.00
441.34	959.00
441.60	908.00
441.86	931.00
442.12	966.00
442.39	949.00
442.65	905.00
442.91	915.00
443.17	933.00
443.43	958.00
443.69	941.00
443.95	909.00
444.21	925.00
444.47	962.00
444.74	922.00
445.00	934.00
445.26	934.00
445.52	938.00
445.78	913.00
446.04	925.00
446.30	976.00
446.56	953.00
446.82	902.00
447.09	933.00
447.35	952.00
447.61	965.00
447.87	927.00
448.13	938.00
448.39	984.00
448.65	963.00
448.91	919.00
449.17	919.00
449.43	921.00
449.70	938.00
449.96	898.00
450.22	907.00
450.48	939.00
450.74	978.00
451.00	924.00
451.26	932.00
451.52	938.00
451.78	923.00
452.04	922.00
452.31	951.00
452.57	956.00
452.83	937.00
453.09	926.00
453.35	931.00
453.61	949.00
453.87	958.00
454.13	932.00
454.39	933.00
454.65	993.00
454.91	976.00
455.17	907.00
455.44	918.00
455.70	959.00
455.96	951.00
456.22	894.00
456.48	913.00
456.74	938.00
457.00	924.00
457.26	866.00
457.52	911.00
457.78	939.00
458.04	934.00
458.30	897.00
458.56	942.00
458.82	928.00
459.09	916.00
459.35	867.00
459.61	911.00
459.87	953.00
460.13	956.00
460.39	909.00
460.65	918.00
460.91	961.00
461.17	925.00
461.43	900.00
461.69	913.00
461.95	955.00
462.21	949.00
462.47	929.00
462.73	960.00
462.99	965.00
463.26	953.00
463.52	905.00
463.78	891.00
464.04	916.00
464.30	949.00
464.56	927.00
464.82	930.00
465.08	979.00
465.34	985.00
465.60	948.00
465.86	931.00
466.12	926.00
466.38	920.00
466.64	916.00
466.90	927.00
467.16	951.00
467.42	972.00
467.68	922.00
467.94	929.00
468.20	983.00
468.46	951.00
468.72	918.00
468.98	926.00
469.25	944.00
469.51	913.00
469.77	932.00
470.03	942.00
470.29	950.00
470.55	949.00
470.81	921.00
471.07	936.00
471.33	948.00
471.59	956.00
471.85	922.00
472.11	929.00
472.37	964.00
472.63	947.00
472.89	934.00
473.15	927.00
473.41	958.00
473.67	945.00
473.93	884.00
474.19	893.00
474.45	919.00
474.71	955.00
474.97	919.00
475.23	901.00
475.49	909.00
475.75	913.00
476.01	916.00
476.27	937.00
476.53	967.00
476.79	966.00
477.05	936.00
477.31	921.00
477.57	942.00
477.83	945.00
478.09	878.00
478.35	934.00
478.61	969.00
478.87	943.00
479.13	914.00
479.39	951.00
479.65	956.00
479.91	965.00
480.17	921.00
480.43	939.00
480.69	948.00
480.95	957.00
481.21	927.00
481.47	940.00
481.73	940.00
481.99	931.00
482.25	902.00
482.51	894.00
482.77	950.00
483.03	945.00
483.29	930.00
483.55	923.00
483.81	972.00
484.07	965.00
484.33	918.00
484.59	913.00
484.85	961.00
485.11	953.00
485.37	934.00
485.63	928.00
485.89	918.00
486.15	917.00
486.41	886.00
486.67	909.00
486.93	945.00
487.19	929.00
487.45	911.00
487.71	903.00
487.97	970.00
488.23	955.00
488.49	905.00
488.75	897.00
489.01	948.00
489.27	983.00
489.53	923.00
489.79	911.00
490.05	925.00
490.31	979.00
490.57	956.00
490.83	980.00
491.08	924.00
491.34	905.00
491.60	912.00
491.86	949.00
492.12	977.00
492.38	979.00
492.64	912.00
492.90	907.00
493.16	966.00
493.42	915.00
493.68	895.00
493.94	941.00
494.20	950.00
494.46	949.00
494.72	917.00
494.98	922.00
495.24	921.00
495.50	935.00
495.76	946.00
496.02	949.00
496.28	971.00
496.54	964.00
496.80	933.00
497.05	910.00
497.31	951.00
497.57	949.00
497.83	916.00
498.09	946.00
498.35	964.00
498.61	959.00
498.87	922.00
499.13	925.00
499.39	933.00
499.65	931.00
499.91	946.00
500.17	920.00
500.43	992.00
500.69	1020.00
500.95	912.00
501.20	936.00
501.46	946.00
501.72	966.00
501.98	964.00
502.24	953.00
502.50	966.00
502.76	932.00
503.02	917.00
503.28	929.00
503.54	991.00
503.80	989.00
504.06	938.00
504.32	957.00
504.58	946.00
504.83	940.00
505.09	905.00
505.35	936.00
505.61	934.00
505.87	943.00
506.13	929.00
506.39	909.00
506.65	963.00
506.91	998.00
507.17	917.00
507.43	914.00
507.68	927.00
507.94	967.00
508.20	907.00
508.46	901.00
508.72	950.00
508.98	965.00
509.24	906.00
509.50	938.00
509.76	925.00
510.02	941.00
510.28	913.00
510.53	921.00
510.79	959.00
511.05	938.00
511.31	909.00
511.57	925.00
511.83	935.00
512.09	965.00
512.35	929.00
512.61	941.00
512.87	956.00
513.12	953.00
513.38	892.00
513.64	914.00
513.90	954.00
514.16	977.00
514.42	947.00
514.68	946.00
514.94	961.00
515.20	966.00
515.45	919.00
515.71	925.00
515.97	936.00
516.23	940.00
516.49	917.00
516.75	926.00
517.01	923.00
517.27	922.00
517.53	921.00
517.78	914.00
518.04	946.00
518.30	926.00
518.56	913.00
518.82	949.00
519.08	980.00
519.34	930.00
519.60	912.00
519.85	937.00
520.11	936.00
520.37	938.00
520.63	915.00
520.89	913.00
521.15	936.00
521.41	944.00
521.66	909.00
521.92	919.00
522.18	984.00
522.44	982.00
522.70	923.00
522.96	890.00
523.22	947.00
523.48	935.00
523.73	914.00
523.99	919.00
524.25	980.00
524.51	971.00
524.77	904.00
525.03	909.00
525.29	961.00
525.54	974.00
525.80	929.00
526.06	921.00
526.32	940.00
526.58	931.00
526.84	913.00
527.09	925.00
527.35	926.00
527.61	935.00
527.87	914.00
528.13	950.00
528.39	936.00
528.65	939.00
528.90	890.00
529.16	900.00
529.42	915.00
529.68	926.00
529.94	902.00
530.20	922.00
530.45	909.00
530.71	930.00
530.97	885.00
531.23	929.00
531.49	950.00
531.75	916.00
532.00	923.00
532.26	914.00
532.52	936.00
532.78	935.00
533.04	920.00
533.30	906.00
533.55	938.00
533.81	940.00
534.07	893.00
534.33	908.00
534.59	944.00
534.85	952.00
535.10	901.00
535.36	899.00
