SpectraSuite Data File
++++++++++++++++++++++++++++++++++++
Date: Fri Nov 29 15:17:55 CET 2024
User: student
Dark Spectrum Present: No
Reference Spectrum Present: No
Number of Sampled Component Spectra: 1
Spectrometers: HR4C155
Integration Time (usec): 100000 (HR4C155)
Spectra Averaged: 1 (HR4C155)
Boxcar Smoothing: 0 (HR4C155)
Correct for Electrical Dark: No (HR4C155)
Strobe/Lamp Enabled: No (HR4C155)
Correct for Detector Non-linearity: No (HR4C155)
Correct for Stray Light: No (HR4C155)
Number of Pixels in Processed Spectrum: 3648
>>>>>Begin Processed Spectral Data<<<<<
195.39	753.00
195.66	753.00
195.93	753.00
196.20	710.00
196.46	746.00
196.73	882.00
197.00	898.00
197.27	883.00
197.54	901.00
197.81	893.00
198.08	893.00
198.35	926.00
198.61	940.00
198.88	903.00
199.15	909.00
199.42	924.00
199.69	961.00
199.96	915.00
200.23	910.00
200.49	919.00
200.76	948.00
201.03	930.00
201.30	917.00
201.57	975.00
201.84	988.00
202.11	944.00
202.38	953.00
202.64	958.00
202.91	993.00
203.18	919.00
203.45	989.00
203.72	1056.00
203.99	986.00
204.25	966.00
204.52	942.00
204.79	971.00
205.06	980.00
205.33	912.00
205.60	929.00
205.87	989.00
206.13	986.00
206.40	964.00
206.67	941.00
206.94	983.00
207.21	974.00
207.48	945.00
207.75	948.00
208.01	984.00
208.28	981.00
208.55	939.00
208.82	946.00
209.09	937.00
209.36	974.00
209.62	962.00
209.89	984.00
210.16	989.00
210.43	1013.00
210.70	944.00
210.97	951.00
211.23	968.00
211.50	995.00
211.77	966.00
212.04	961.00
212.31	983.00
212.58	997.00
212.84	940.00
213.11	949.00
213.38	921.00
213.65	970.00
213.92	948.00
214.18	950.00
214.45	1023.00
214.72	1003.00
214.99	926.00
215.26	956.00
215.53	946.00
215.79	977.00
216.06	967.00
216.33	971.00
216.60	947.00
216.87	992.00
217.13	907.00
217.40	931.00
217.67	979.00
217.94	1009.00
218.21	949.00
218.48	974.00
218.74	1037.00
219.01	990.00
219.28	912.00
219.55	923.00
219.82	967.00
220.08	984.00
220.35	933.00
220.62	947.00
220.89	991.00
221.16	1015.00
221.42	964.00
221.69	969.00
221.96	977.00
222.23	989.00
222.50	974.00
222.76	965.00
223.03	944.00
223.30	950.00
223.57	927.00
223.84	925.00
224.10	936.00
224.37	963.00
224.64	929.00
224.91	950.00
225.18	989.00
225.44	1000.00
225.71	950.00
225.98	976.00
226.25	1000.00
226.51	996.00
226.78	927.00
227.05	928.00
227.32	959.00
227.59	987.00
227.85	968.00
228.12	949.00
228.39	992.00
228.66	1003.00
228.92	987.00
229.19	948.00
229.46	999.00
229.73	955.00
230.00	932.00
230.26	964.00
230.53	1004.00
230.80	982.00
231.07	922.00
231.33	920.00
231.60	966.00
231.87	987.00
232.14	951.00
232.41	990.00
232.67	986.00
232.94	983.00
233.21	929.00
233.48	961.00
233.74	982.00
234.01	966.00
234.28	914.00
234.55	956.00
234.81	969.00
235.08	997.00
235.35	936.00
235.62	944.00
235.88	965.00
236.15	977.00
236.42	954.00
236.69	967.00
236.95	982.00
237.22	962.00
237.49	938.00
237.76	936.00
238.02	997.00
238.29	1001.00
238.56	955.00
238.83	944.00
239.09	957.00
239.36	991.00
239.63	935.00
239.90	941.00
240.16	999.00
240.43	1007.00
240.70	930.00
240.97	939.00
241.23	958.00
241.50	989.00
241.77	953.00
242.04	953.00
242.30	921.00
242.57	935.00
242.84	911.00
243.11	955.00
243.37	934.00
243.64	1001.00
243.91	948.00
244.18	944.00
244.44	942.00
244.71	942.00
244.98	947.00
245.24	951.00
245.51	976.00
245.78	989.00
246.05	932.00
246.31	950.00
246.58	980.00
246.85	965.00
247.12	953.00
247.38	998.00
247.65	986.00
247.92	985.00
248.18	930.00
248.45	945.00
248.72	972.00
248.99	972.00
249.25	939.00
249.52	943.00
249.79	978.00
250.05	976.00
250.32	948.00
250.59	947.00
250.86	948.00
251.12	958.00
251.39	919.00
251.66	944.00
251.92	978.00
252.19	984.00
252.46	945.00
252.73	972.00
252.99	976.00
253.26	992.00
253.53	927.00
253.79	950.00
254.06	953.00
254.33	962.00
254.60	910.00
254.86	953.00
255.13	971.00
255.40	984.00
255.66	936.00
255.93	964.00
256.20	980.00
256.46	1004.00
256.73	959.00
257.00	956.00
257.26	978.00
257.53	980.00
257.80	964.00
258.07	965.00
258.33	1008.00
258.60	997.00
258.87	930.00
259.13	968.00
259.40	957.00
259.67	993.00
259.93	934.00
260.20	969.00
260.47	989.00
260.73	949.00
261.00	936.00
261.27	959.00
261.53	991.00
261.80	973.00
262.07	922.00
262.34	947.00
262.60	920.00
262.87	959.00
263.14	927.00
263.40	961.00
263.67	957.00
263.94	933.00
264.20	931.00
264.47	938.00
264.74	955.00
265.00	945.00
265.27	914.00
265.54	936.00
265.80	979.00
266.07	993.00
266.34	926.00
266.60	952.00
266.87	970.00
267.14	987.00
267.40	931.00
267.67	919.00
267.94	968.00
268.20	958.00
268.47	929.00
268.74	930.00
269.00	964.00
269.27	951.00
269.54	900.00
269.80	931.00
270.07	983.00
270.33	958.00
270.60	941.00
270.87	954.00
271.13	954.00
271.40	961.00
271.67	905.00
271.93	905.00
272.20	952.00
272.47	956.00
272.73	900.00
273.00	938.00
273.27	954.00
273.53	971.00
273.80	933.00
274.07	926.00
274.33	938.00
274.60	967.00
274.86	935.00
275.13	948.00
275.40	960.00
275.66	982.00
275.93	937.00
276.20	931.00
276.46	939.00
276.73	933.00
277.00	958.00
277.26	958.00
277.53	969.00
277.79	964.00
278.06	927.00
278.33	985.00
278.59	972.00
278.86	945.00
279.13	926.00
279.39	947.00
279.66	992.00
279.93	1004.00
280.19	937.00
280.46	940.00
280.72	940.00
280.99	977.00
281.26	933.00
281.52	930.00
281.79	967.00
282.05	967.00
282.32	945.00
282.59	949.00
282.85	1002.00
283.12	990.00
283.39	947.00
283.65	959.00
283.92	971.00
284.18	994.00
284.45	952.00
284.72	963.00
284.98	959.00
285.25	948.00
285.51	964.00
285.78	948.00
286.05	948.00
286.31	951.00
286.58	909.00
286.84	913.00
287.11	941.00
287.38	973.00
287.64	955.00
287.91	918.00
288.17	969.00
288.44	957.00
288.71	890.00
288.97	948.00
289.24	998.00
289.50	949.00
289.77	956.00
290.04	928.00
290.30	921.00
290.57	970.00
290.83	915.00
291.10	926.00
291.37	958.00
291.63	940.00
291.90	948.00
292.16	955.00
292.43	970.00
292.70	942.00
292.96	911.00
293.23	930.00
293.49	936.00
293.76	968.00
294.02	926.00
294.29	924.00
294.56	962.00
294.82	973.00
295.09	937.00
295.35	932.00
295.62	981.00
295.89	980.00
296.15	920.00
296.42	917.00
296.68	939.00
296.95	945.00
297.21	946.00
297.48	934.00
297.75	957.00
298.01	1013.00
298.28	954.00
298.54	952.00
298.81	956.00
299.07	980.00
299.34	922.00
299.61	962.00
299.87	989.00
300.14	963.00
300.40	972.00
300.67	962.00
300.93	964.00
301.20	1000.00
301.46	944.00
301.73	941.00
302.00	977.00
302.26	961.00
302.53	961.00
302.79	940.00
303.06	971.00
303.32	995.00
303.59	930.00
303.85	912.00
304.12	931.00
304.39	969.00
304.65	933.00
304.92	937.00
305.18	953.00
305.45	966.00
305.71	940.00
305.98	963.00
306.24	964.00
306.51	964.00
306.77	953.00
307.04	947.00
307.31	993.00
307.57	998.00
307.84	926.00
308.10	943.00
308.37	935.00
308.63	961.00
308.90	939.00
309.16	946.00
309.43	985.00
309.69	952.00
309.96	949.00
310.22	933.00
310.49	955.00
310.76	962.00
311.02	899.00
311.29	930.00
311.55	941.00
311.82	959.00
312.08	957.00
312.35	960.00
312.61	974.00
312.88	971.00
313.14	934.00
313.41	936.00
313.67	936.00
313.94	968.00
314.20	948.00
314.47	947.00
314.73	932.00
315.00	934.00
315.26	911.00
315.53	954.00
315.79	966.00
316.06	971.00
316.32	937.00
316.59	964.00
316.85	956.00
317.12	971.00
317.39	909.00
317.65	935.00
317.92	934.00
318.18	958.00
318.45	935.00
318.71	979.00
318.98	998.00
319.24	955.00
319.51	945.00
319.77	942.00
320.04	968.00
320.30	963.00
320.57	929.00
320.83	927.00
321.10	935.00
321.36	948.00
321.63	940.00
321.89	936.00
322.16	985.00
322.42	976.00
322.69	911.00
322.95	931.00
323.22	967.00
323.48	963.00
323.75	920.00
324.01	947.00
324.28	947.00
324.54	958.00
324.80	957.00
325.07	965.00
325.33	960.00
325.60	953.00
325.86	923.00
326.13	938.00
326.39	942.00
326.66	927.00
326.92	900.00
327.19	932.00
327.45	996.00
327.72	1003.00
327.98	942.00
328.25	936.00
328.51	952.00
328.78	965.00
329.04	923.00
329.31	945.00
329.57	953.00
329.84	944.00
330.10	918.00
330.37	937.00
330.63	979.00
330.89	996.00
331.16	935.00
331.42	952.00
331.69	990.00
331.95	956.00
332.22	944.00
332.48	984.00
332.75	971.00
333.01	949.00
333.28	932.00
333.54	944.00
333.81	953.00
334.07	973.00
334.34	949.00
334.60	956.00
334.86	1009.00
335.13	1016.00
335.39	943.00
335.66	921.00
335.92	968.00
336.19	983.00
336.45	898.00
336.72	927.00
336.98	933.00
337.24	948.00
337.51	915.00
337.77	945.00
338.04	959.00
338.30	966.00
338.57	922.00
338.83	936.00
339.10	967.00
339.36	973.00
339.63	945.00
339.89	916.00
340.15	949.00
340.42	978.00
340.68	967.00
340.95	960.00
341.21	972.00
341.48	968.00
341.74	914.00
342.00	917.00
342.27	956.00
342.53	971.00
342.80	938.00
343.06	953.00
343.33	966.00
343.59	972.00
343.85	929.00
344.12	938.00
344.38	1006.00
344.65	984.00
344.91	928.00
345.18	919.00
345.44	948.00
345.70	939.00
345.97	899.00
346.23	927.00
346.50	976.00
346.76	961.00
347.03	948.00
347.29	939.00
347.55	934.00
347.82	925.00
348.08	884.00
348.35	924.00
348.61	1011.00
348.87	980.00
349.14	918.00
349.40	922.00
349.67	977.00
349.93	949.00
350.20	937.00
350.46	953.00
350.72	985.00
350.99	962.00
351.25	948.00
351.52	919.00
351.78	935.00
352.04	949.00
352.31	941.00
352.57	932.00
352.84	934.00
353.10	962.00
353.36	949.00
353.63	945.00
353.89	950.00
354.16	972.00
354.42	940.00
354.68	952.00
354.95	991.00
355.21	976.00
355.48	912.00
355.74	942.00
356.00	985.00
356.27	998.00
356.53	922.00
356.80	932.00
357.06	969.00
357.32	990.00
357.59	969.00
357.85	958.00
358.11	992.00
358.38	979.00
358.64	930.00
358.91	938.00
359.17	944.00
359.43	986.00
359.70	962.00
359.96	956.00
360.22	976.00
360.49	953.00
360.75	935.00
361.02	926.00
361.28	936.00
361.54	963.00
361.81	915.00
362.07	931.00
362.33	950.00
362.60	935.00
362.86	906.00
363.13	944.00
363.39	979.00
363.65	972.00
363.92	899.00
364.18	908.00
364.44	959.00
364.71	972.00
364.97	934.00
365.24	939.00
365.50	974.00
365.76	979.00
366.03	945.00
366.29	944.00
366.55	973.00
366.82	928.00
367.08	902.00
367.34	945.00
367.61	966.00
367.87	963.00
368.13	947.00
368.40	924.00
368.66	978.00
368.93	971.00
369.19	901.00
369.45	911.00
369.72	952.00
369.98	942.00
370.24	909.00
370.51	927.00
370.77	961.00
371.03	952.00
371.30	932.00
371.56	962.00
371.82	985.00
372.09	961.00
372.35	948.00
372.61	962.00
372.88	952.00
373.14	967.00
373.40	941.00
373.67	931.00
373.93	967.00
374.19	982.00
374.46	917.00
374.72	915.00
374.98	944.00
375.25	970.00
375.51	952.00
375.77	974.00
376.04	984.00
376.30	984.00
376.56	931.00
376.83	937.00
377.09	961.00
377.35	967.00
377.62	922.00
377.88	917.00
378.14	932.00
378.41	937.00
378.67	911.00
378.93	920.00
379.20	959.00
379.46	937.00
379.72	926.00
379.99	921.00
380.25	921.00
380.51	918.00
380.77	909.00
381.04	935.00
381.30	970.00
381.56	993.00
381.83	953.00
382.09	930.00
382.35	949.00
382.62	965.00
382.88	953.00
383.14	950.00
383.41	930.00
383.67	944.00
383.93	932.00
384.20	921.00
384.46	958.00
384.72	977.00
384.98	925.00
385.25	951.00
385.51	958.00
385.77	945.00
386.04	921.00
386.30	904.00
386.56	952.00
386.82	1000.00
387.09	933.00
387.35	969.00
387.61	1034.00
387.88	971.00
388.14	944.00
388.40	942.00
388.67	957.00
388.93	945.00
389.19	930.00
389.45	919.00
389.72	933.00
389.98	980.00
390.24	948.00
390.51	922.00
390.77	958.00
391.03	991.00
391.29	922.00
391.56	940.00
391.82	966.00
392.08	1008.00
392.35	931.00
392.61	929.00
392.87	965.00
393.13	980.00
393.40	934.00
393.66	931.00
393.92	954.00
394.18	978.00
394.45	919.00
394.71	938.00
394.97	948.00
395.24	925.00
395.50	912.00
395.76	943.00
396.02	957.00
396.29	954.00
396.55	909.00
396.81	882.00
397.07	945.00
397.34	930.00
397.60	905.00
397.86	901.00
398.12	938.00
398.39	964.00
398.65	906.00
398.91	912.00
399.17	948.00
399.44	921.00
399.70	876.00
399.96	921.00
400.22	941.00
400.49	978.00
400.75	939.00
401.01	921.00
401.27	934.00
401.54	968.00
401.80	934.00
402.06	935.00
402.32	960.00
402.59	953.00
402.85	933.00
403.11	940.00
403.37	920.00
403.64	967.00
403.90	926.00
404.16	935.00
404.42	946.00
404.69	922.00
404.95	924.00
405.21	907.00
405.47	939.00
405.74	968.00
406.00	910.00
406.26	922.00
406.52	965.00
406.79	977.00
407.05	914.00
407.31	929.00
407.57	942.00
407.83	953.00
408.10	912.00
408.36	930.00
408.62	953.00
408.88	945.00
409.15	921.00
409.41	883.00
409.67	923.00
409.93	966.00
410.20	944.00
410.46	932.00
410.72	931.00
410.98	949.00
411.24	920.00
411.51	934.00
411.77	948.00
412.03	951.00
412.29	937.00
412.55	954.00
412.82	947.00
413.08	965.00
413.34	949.00
413.60	936.00
413.87	964.00
414.13	980.00
414.39	923.00
414.65	940.00
414.91	952.00
415.18	926.00
415.44	903.00
415.70	908.00
415.96	925.00
416.22	939.00
416.49	912.00
416.75	928.00
417.01	949.00
417.27	956.00
417.53	934.00
417.80	938.00
418.06	968.00
418.32	968.00
418.58	914.00
418.84	914.00
419.11	950.00
419.37	964.00
419.63	924.00
419.89	923.00
420.15	958.00
420.42	947.00
420.68	893.00
420.94	924.00
421.20	942.00
421.46	958.00
421.72	950.00
421.99	946.00
422.25	943.00
422.51	966.00
422.77	939.00
423.03	960.00
423.30	958.00
423.56	964.00
423.82	964.00
424.08	952.00
424.34	954.00
424.60	954.00
424.87	931.00
425.13	912.00
425.39	915.00
425.65	941.00
425.91	931.00
426.18	965.00
426.44	966.00
426.70	939.00
426.96	894.00
427.22	885.00
427.48	917.00
427.75	933.00
428.01	896.00
428.27	940.00
428.53	968.00
428.79	934.00
429.05	910.00
429.32	941.00
429.58	980.00
429.84	939.00
430.10	931.00
430.36	940.00
430.62	978.00
430.88	959.00
431.15	927.00
431.41	952.00
431.67	952.00
431.93	936.00
432.19	897.00
432.45	937.00
432.72	944.00
432.98	950.00
433.24	949.00
433.50	1035.00
433.76	951.00
434.02	920.00
434.28	915.00
434.55	940.00
434.81	956.00
435.07	956.00
435.33	891.00
435.59	925.00
435.85	933.00
436.11	966.00
436.38	910.00
436.64	914.00
436.90	938.00
437.16	934.00
437.42	908.00
437.68	924.00
437.94	949.00
438.21	965.00
438.47	961.00
438.73	953.00
438.99	944.00
439.25	954.00
439.51	917.00
439.77	937.00
440.03	957.00
440.30	979.00
440.56	931.00
440.82	962.00
441.08	973.00
441.34	954.00
441.60	912.00
441.86	937.00
442.12	957.00
442.39	933.00
442.65	919.00
442.91	930.00
443.17	942.00
443.43	945.00
443.69	930.00
443.95	920.00
444.21	927.00
444.47	948.00
444.74	889.00
445.00	935.00
445.26	932.00
445.52	948.00
445.78	917.00
446.04	914.00
446.30	967.00
446.56	971.00
446.82	903.00
447.09	921.00
447.35	952.00
447.61	954.00
447.87	930.00
448.13	933.00
448.39	990.00
448.65	965.00
448.91	907.00
449.17	938.00
449.43	934.00
449.70	927.00
449.96	880.00
450.22	886.00
450.48	925.00
450.74	963.00
451.00	919.00
451.26	929.00
451.52	949.00
451.78	938.00
452.04	912.00
452.31	949.00
452.57	949.00
452.83	948.00
453.09	917.00
453.35	925.00
453.61	947.00
453.87	956.00
454.13	935.00
454.39	944.00
454.65	1009.00
454.91	992.00
455.17	890.00
455.44	926.00
455.70	968.00
455.96	957.00
456.22	910.00
456.48	919.00
456.74	945.00
457.00	922.00
457.26	878.00
457.52	914.00
457.78	936.00
458.04	936.00
458.30	912.00
458.56	934.00
458.82	937.00
459.09	933.00
459.35	885.00
459.61	910.00
459.87	943.00
460.13	979.00
460.39	919.00
460.65	902.00
460.91	963.00
461.17	931.00
461.43	891.00
461.69	906.00
461.95	952.00
462.21	922.00
462.47	932.00
462.73	950.00
462.99	974.00
463.26	958.00
463.52	898.00
463.78	883.00
464.04	920.00
464.30	933.00
464.56	913.00
464.82	919.00
465.08	971.00
465.34	958.00
465.60	938.00
465.86	940.00
466.12	928.00
466.38	918.00
466.64	918.00
466.90	910.00
467.16	937.00
467.42	950.00
467.68	909.00
467.94	935.00
468.20	984.00
468.46	950.00
468.72	932.00
468.98	945.00
469.25	961.00
469.51	931.00
469.77	938.00
470.03	938.00
470.29	940.00
470.55	973.00
470.81	944.00
471.07	944.00
471.33	976.00
471.59	980.00
471.85	941.00
472.11	950.00
472.37	968.00
472.63	932.00
472.89	934.00
473.15	919.00
473.41	944.00
473.67	944.00
473.93	897.00
474.19	905.00
474.45	923.00
474.71	946.00
474.97	910.00
475.23	909.00
475.49	927.00
475.75	935.00
476.01	922.00
476.27	950.00
476.53	975.00
476.79	961.00
477.05	923.00
477.31	918.00
477.57	971.00
477.83	957.00
478.09	891.00
478.35	941.00
478.61	981.00
478.87	946.00
479.13	894.00
479.39	941.00
479.65	967.00
479.91	973.00
480.17	942.00
480.43	946.00
480.69	932.00
480.95	962.00
481.21	932.00
481.47	924.00
481.73	939.00
481.99	929.00
482.25	890.00
482.51	903.00
482.77	954.00
483.03	954.00
483.29	932.00
483.55	926.00
483.81	972.00
484.07	961.00
484.33	920.00
484.59	926.00
484.85	979.00
485.11	957.00
485.37	932.00
485.63	914.00
485.89	923.00
486.15	937.00
486.41	922.00
486.67	921.00
486.93	949.00
487.19	949.00
487.45	923.00
487.71	913.00
487.97	957.00
488.23	966.00
488.49	908.00
488.75	891.00
489.01	961.00
489.27	977.00
489.53	922.00
489.79	910.00
490.05	934.00
490.31	968.00
490.57	940.00
490.83	991.00
491.08	943.00
491.34	915.00
491.60	912.00
491.86	934.00
492.12	995.00
492.38	976.00
492.64	918.00
492.90	911.00
493.16	954.00
493.42	918.00
493.68	902.00
493.94	932.00
494.20	917.00
494.46	941.00
494.72	923.00
494.98	923.00
495.24	909.00
495.50	942.00
495.76	940.00
496.02	947.00
496.28	965.00
496.54	948.00
496.80	924.00
497.05	885.00
497.31	953.00
497.57	940.00
497.83	909.00
498.09	944.00
498.35	965.00
498.61	962.00
498.87	926.00
499.13	925.00
499.39	946.00
499.65	939.00
499.91	923.00
500.17	902.00
500.43	996.00
500.69	1022.00
500.95	901.00
501.20	949.00
501.46	959.00
501.72	957.00
501.98	958.00
502.24	949.00
502.50	982.00
502.76	947.00
503.02	927.00
503.28	931.00
503.54	987.00
503.80	994.00
504.06	950.00
504.32	964.00
504.58	970.00
504.83	958.00
505.09	912.00
505.35	935.00
505.61	918.00
505.87	930.00
506.13	941.00
506.39	920.00
506.65	953.00
506.91	978.00
507.17	899.00
507.43	910.00
507.68	925.00
507.94	973.00
508.20	928.00
508.46	900.00
508.72	958.00
508.98	983.00
509.24	897.00
509.50	928.00
509.76	926.00
510.02	938.00
510.28	924.00
510.53	925.00
510.79	971.00
511.05	944.00
511.31	906.00
511.57	929.00
511.83	940.00
512.09	970.00
512.35	932.00
512.61	939.00
512.87	958.00
513.12	961.00
513.38	902.00
513.64	936.00
513.90	958.00
514.16	982.00
514.42	932.00
514.68	939.00
514.94	960.00
515.20	963.00
515.45	913.00
515.71	909.00
515.97	945.00
516.23	950.00
516.49	937.00
516.75	913.00
517.01	933.00
517.27	930.00
517.53	883.00
517.78	919.00
518.04	950.00
518.30	913.00
518.56	911.00
518.82	946.00
519.08	971.00
519.34	916.00
519.60	904.00
519.85	936.00
520.11	940.00
520.37	941.00
520.63	938.00
520.89	947.00
521.15	949.00
521.41	939.00
521.66	931.00
521.92	926.00
522.18	970.00
522.44	974.00
522.70	942.00
522.96	898.00
523.22	958.00
523.48	949.00
523.73	909.00
523.99	900.00
524.25	979.00
524.51	968.00
524.77	930.00
525.03	908.00
525.29	931.00
525.54	956.00
525.80	935.00
526.06	925.00
526.32	938.00
526.58	933.00
526.84	907.00
527.09	919.00
527.35	929.00
527.61	937.00
527.87	902.00
528.13	939.00
528.39	933.00
528.65	933.00
528.90	887.00
529.16	911.00
529.42	913.00
529.68	908.00
529.94	913.00
530.20	915.00
530.45	903.00
530.71	932.00
530.97	902.00
531.23	929.00
531.49	949.00
531.75	915.00
532.00	905.00
532.26	910.00
532.52	950.00
532.78	938.00
533.04	897.00
533.30	904.00
533.55	927.00
533.81	942.00
534.07	898.00
534.33	918.00
534.59	956.00
534.85	946.00
535.10	910.00
535.36	887.00
