SpectraSuite Data File
++++++++++++++++++++++++++++++++++++
Date: Fri Nov 29 15:15:20 CET 2024
User: student
Dark Spectrum Present: No
Reference Spectrum Present: No
Number of Sampled Component Spectra: 1
Spectrometers: HR4C155
Integration Time (usec): 100000 (HR4C155)
Spectra Averaged: 1 (HR4C155)
Boxcar Smoothing: 0 (HR4C155)
Correct for Electrical Dark: No (HR4C155)
Strobe/Lamp Enabled: No (HR4C155)
Correct for Detector Non-linearity: No (HR4C155)
Correct for Stray Light: No (HR4C155)
Number of Pixels in Processed Spectrum: 3648
>>>>>Begin Processed Spectral Data<<<<<
195.39	750.00
195.66	750.00
195.93	750.00
196.20	705.00
196.46	759.00
196.73	873.00
197.00	886.00
197.27	882.00
197.54	926.00
197.81	897.00
198.08	905.00
198.35	946.00
198.61	944.00
198.88	907.00
199.15	894.00
199.42	914.00
199.69	930.00
199.96	903.00
200.23	919.00
200.49	924.00
200.76	951.00
201.03	931.00
201.30	904.00
201.57	970.00
201.84	984.00
202.11	935.00
202.38	955.00
202.64	968.00
202.91	981.00
203.18	930.00
203.45	974.00
203.72	1066.00
203.99	957.00
204.25	965.00
204.52	962.00
204.79	983.00
205.06	979.00
205.33	917.00
205.60	939.00
205.87	974.00
206.13	994.00
206.40	947.00
206.67	947.00
206.94	974.00
207.21	976.00
207.48	945.00
207.75	931.00
208.01	995.00
208.28	989.00
208.55	932.00
208.82	938.00
209.09	945.00
209.36	987.00
209.62	955.00
209.89	959.00
210.16	983.00
210.43	1011.00
210.70	935.00
210.97	954.00
211.23	981.00
211.50	993.00
211.77	946.00
212.04	950.00
212.31	969.00
212.58	999.00
212.84	954.00
213.11	955.00
213.38	929.00
213.65	974.00
213.92	947.00
214.18	949.00
214.45	1006.00
214.72	1005.00
214.99	918.00
215.26	946.00
215.53	962.00
215.79	986.00
216.06	957.00
216.33	960.00
216.60	958.00
216.87	983.00
217.13	918.00
217.40	939.00
217.67	979.00
217.94	1009.00
218.21	932.00
218.48	984.00
218.74	1037.00
219.01	994.00
219.28	928.00
219.55	936.00
219.82	982.00
220.08	984.00
220.35	945.00
220.62	937.00
220.89	990.00
221.16	1005.00
221.42	964.00
221.69	965.00
221.96	986.00
222.23	986.00
222.50	974.00
222.76	976.00
223.03	971.00
223.30	953.00
223.57	930.00
223.84	924.00
224.10	932.00
224.37	984.00
224.64	937.00
224.91	955.00
225.18	990.00
225.44	1004.00
225.71	945.00
225.98	974.00
226.25	987.00
226.51	996.00
226.78	946.00
227.05	953.00
227.32	985.00
227.59	978.00
227.85	968.00
228.12	958.00
228.39	996.00
228.66	992.00
228.92	982.00
229.19	968.00
229.46	972.00
229.73	937.00
230.00	919.00
230.26	966.00
230.53	1004.00
230.80	969.00
231.07	907.00
231.33	911.00
231.60	959.00
231.87	970.00
232.14	970.00
232.41	1009.00
232.67	981.00
232.94	974.00
233.21	918.00
233.48	942.00
233.74	961.00
234.01	969.00
234.28	941.00
234.55	951.00
234.81	937.00
235.08	995.00
235.35	940.00
235.62	932.00
235.88	962.00
236.15	987.00
236.42	965.00
236.69	961.00
236.95	985.00
237.22	951.00
237.49	944.00
237.76	945.00
238.02	988.00
238.29	998.00
238.56	956.00
238.83	951.00
239.09	949.00
239.36	988.00
239.63	944.00
239.90	962.00
240.16	1014.00
240.43	1037.00
240.70	956.00
240.97	953.00
241.23	949.00
241.50	978.00
241.77	942.00
242.04	960.00
242.30	940.00
242.57	965.00
242.84	927.00
243.11	936.00
243.37	931.00
243.64	1003.00
243.91	956.00
244.18	943.00
244.44	937.00
244.71	954.00
244.98	942.00
245.24	961.00
245.51	970.00
245.78	1002.00
246.05	930.00
246.31	934.00
246.58	979.00
246.85	970.00
247.12	947.00
247.38	974.00
247.65	962.00
247.92	970.00
248.18	932.00
248.45	930.00
248.72	950.00
248.99	965.00
249.25	927.00
249.52	949.00
249.79	972.00
250.05	971.00
250.32	945.00
250.59	958.00
250.86	960.00
251.12	957.00
251.39	925.00
251.66	949.00
251.92	999.00
252.19	1002.00
252.46	930.00
252.73	957.00
252.99	985.00
253.26	996.00
253.53	943.00
253.79	973.00
254.06	982.00
254.33	932.00
254.60	905.00
254.86	932.00
255.13	972.00
255.40	991.00
255.66	952.00
255.93	947.00
256.20	971.00
256.46	994.00
256.73	935.00
257.00	957.00
257.26	964.00
257.53	972.00
257.80	959.00
258.07	978.00
258.33	996.00
258.60	997.00
258.87	926.00
259.13	942.00
259.40	938.00
259.67	998.00
259.93	952.00
260.20	968.00
260.47	985.00
260.73	977.00
261.00	939.00
261.27	963.00
261.53	995.00
261.80	965.00
262.07	934.00
262.34	960.00
262.60	928.00
262.87	966.00
263.14	918.00
263.40	963.00
263.67	941.00
263.94	935.00
264.20	931.00
264.47	918.00
264.74	938.00
265.00	953.00
265.27	918.00
265.54	942.00
265.80	986.00
266.07	999.00
266.34	910.00
266.60	935.00
266.87	970.00
267.14	989.00
267.40	936.00
267.67	927.00
267.94	970.00
268.20	950.00
268.47	913.00
268.74	926.00
269.00	958.00
269.27	941.00
269.54	898.00
269.80	926.00
270.07	955.00
270.33	923.00
270.60	930.00
270.87	969.00
271.13	965.00
271.40	969.00
271.67	897.00
271.93	905.00
272.20	947.00
272.47	920.00
272.73	897.00
273.00	931.00
273.27	947.00
273.53	991.00
273.80	951.00
274.07	920.00
274.33	947.00
274.60	967.00
274.86	938.00
275.13	944.00
275.40	938.00
275.66	995.00
275.93	946.00
276.20	914.00
276.46	919.00
276.73	933.00
277.00	933.00
277.26	951.00
277.53	979.00
277.79	960.00
278.06	936.00
278.33	981.00
278.59	987.00
278.86	943.00
279.13	942.00
279.39	951.00
279.66	995.00
279.93	1001.00
280.19	929.00
280.46	929.00
280.72	947.00
280.99	986.00
281.26	939.00
281.52	936.00
281.79	953.00
282.05	962.00
282.32	939.00
282.59	941.00
282.85	976.00
283.12	965.00
283.39	934.00
283.65	950.00
283.92	960.00
284.18	974.00
284.45	935.00
284.72	944.00
284.98	959.00
285.25	952.00
285.51	964.00
285.78	964.00
286.05	945.00
286.31	974.00
286.58	906.00
286.84	930.00
287.11	953.00
287.38	976.00
287.64	964.00
287.91	937.00
288.17	973.00
288.44	965.00
288.71	911.00
288.97	949.00
289.24	986.00
289.50	961.00
289.77	958.00
290.04	909.00
290.30	938.00
290.57	969.00
290.83	914.00
291.10	924.00
291.37	976.00
291.63	949.00
291.90	947.00
292.16	964.00
292.43	963.00
292.70	942.00
292.96	906.00
293.23	917.00
293.49	935.00
293.76	957.00
294.02	923.00
294.29	942.00
294.56	979.00
294.82	970.00
295.09	936.00
295.35	929.00
295.62	982.00
295.89	1007.00
296.15	918.00
296.42	913.00
296.68	926.00
296.95	937.00
297.21	948.00
297.48	942.00
297.75	951.00
298.01	984.00
298.28	942.00
298.54	955.00
298.81	965.00
299.07	968.00
299.34	911.00
299.61	940.00
299.87	979.00
300.14	946.00
300.40	960.00
300.67	956.00
300.93	966.00
301.20	1009.00
301.46	928.00
301.73	955.00
302.00	965.00
302.26	945.00
302.53	945.00
302.79	953.00
303.06	966.00
303.32	1000.00
303.59	941.00
303.85	926.00
304.12	945.00
304.39	954.00
304.65	929.00
304.92	945.00
305.18	964.00
305.45	985.00
305.71	952.00
305.98	950.00
306.24	940.00
306.51	933.00
306.77	929.00
307.04	932.00
307.31	982.00
307.57	984.00
307.84	926.00
308.10	934.00
308.37	927.00
308.63	958.00
308.90	943.00
309.16	943.00
309.43	978.00
309.69	946.00
309.96	943.00
310.22	946.00
310.49	955.00
310.76	963.00
311.02	897.00
311.29	921.00
311.55	945.00
311.82	965.00
312.08	941.00
312.35	965.00
312.61	963.00
312.88	989.00
313.14	936.00
313.41	916.00
313.67	927.00
313.94	965.00
314.20	942.00
314.47	967.00
314.73	950.00
315.00	950.00
315.26	926.00
315.53	969.00
315.79	965.00
316.06	974.00
316.32	934.00
316.59	955.00
316.85	969.00
317.12	953.00
317.39	902.00
317.65	923.00
317.92	943.00
318.18	961.00
318.45	938.00
318.71	980.00
318.98	989.00
319.24	961.00
319.51	950.00
319.77	934.00
320.04	962.00
320.30	965.00
320.57	933.00
320.83	926.00
321.10	917.00
321.36	940.00
321.63	913.00
321.89	939.00
322.16	979.00
322.42	950.00
322.69	921.00
322.95	932.00
323.22	963.00
323.48	974.00
323.75	925.00
324.01	944.00
324.28	963.00
324.54	971.00
324.80	946.00
325.07	954.00
325.33	973.00
325.60	933.00
325.86	890.00
326.13	938.00
326.39	948.00
326.66	940.00
326.92	890.00
327.19	941.00
327.45	987.00
327.72	991.00
327.98	947.00
328.25	922.00
328.51	962.00
328.78	953.00
329.04	921.00
329.31	958.00
329.57	969.00
329.84	941.00
330.10	920.00
330.37	938.00
330.63	987.00
330.89	1002.00
331.16	935.00
331.42	930.00
331.69	979.00
331.95	955.00
332.22	954.00
332.48	994.00
332.75	974.00
333.01	929.00
333.28	921.00
333.54	938.00
333.81	942.00
334.07	962.00
334.34	941.00
334.60	951.00
334.86	992.00
335.13	1000.00
335.39	946.00
335.66	945.00
335.92	964.00
336.19	964.00
336.45	915.00
336.72	934.00
336.98	932.00
337.24	955.00
337.51	918.00
337.77	923.00
338.04	955.00
338.30	972.00
338.57	912.00
338.83	936.00
339.10	974.00
339.36	960.00
339.63	918.00
339.89	902.00
340.15	948.00
340.42	989.00
340.68	950.00
340.95	941.00
341.21	952.00
341.48	951.00
341.74	907.00
342.00	916.00
342.27	968.00
342.53	963.00
342.80	920.00
343.06	942.00
343.33	949.00
343.59	974.00
343.85	932.00
344.12	947.00
344.38	1009.00
344.65	986.00
344.91	929.00
345.18	933.00
345.44	941.00
345.70	959.00
345.97	900.00
346.23	930.00
346.50	965.00
346.76	955.00
347.03	939.00
347.29	943.00
347.55	956.00
347.82	950.00
348.08	902.00
348.35	933.00
348.61	1002.00
348.87	979.00
349.14	923.00
349.40	926.00
349.67	977.00
349.93	962.00
350.20	931.00
350.46	954.00
350.72	969.00
350.99	944.00
351.25	922.00
351.52	915.00
351.78	927.00
352.04	945.00
352.31	931.00
352.57	926.00
352.84	935.00
353.10	950.00
353.36	951.00
353.63	935.00
353.89	947.00
354.16	976.00
354.42	957.00
354.68	948.00
354.95	976.00
355.21	986.00
355.48	930.00
355.74	966.00
356.00	983.00
356.27	992.00
356.53	930.00
356.80	917.00
357.06	958.00
357.32	972.00
357.59	943.00
357.85	956.00
358.11	982.00
358.38	947.00
358.64	930.00
358.91	934.00
359.17	949.00
359.43	981.00
359.70	958.00
359.96	950.00
360.22	978.00
360.49	948.00
360.75	940.00
361.02	923.00
361.28	935.00
361.54	949.00
361.81	909.00
362.07	942.00
362.33	941.00
362.60	944.00
362.86	920.00
363.13	935.00
363.39	969.00
363.65	984.00
363.92	893.00
364.18	904.00
364.44	949.00
364.71	977.00
364.97	937.00
365.24	924.00
365.50	963.00
365.76	988.00
366.03	937.00
366.29	957.00
366.55	959.00
366.82	938.00
367.08	903.00
367.34	939.00
367.61	975.00
367.87	972.00
368.13	940.00
368.40	941.00
368.66	1003.00
368.93	971.00
369.19	904.00
369.45	922.00
369.72	951.00
369.98	952.00
370.24	901.00
370.51	905.00
370.77	960.00
371.03	963.00
371.30	934.00
371.56	959.00
371.82	983.00
372.09	957.00
372.35	954.00
372.61	953.00
372.88	954.00
373.14	966.00
373.40	938.00
373.67	947.00
373.93	967.00
374.19	968.00
374.46	924.00
374.72	924.00
374.98	952.00
375.25	945.00
375.51	956.00
375.77	966.00
376.04	968.00
376.30	967.00
376.56	921.00
376.83	931.00
377.09	972.00
377.35	962.00
377.62	938.00
377.88	929.00
378.14	938.00
378.41	969.00
378.67	943.00
378.93	926.00
379.20	950.00
379.46	947.00
379.72	920.00
379.99	918.00
380.25	941.00
380.51	924.00
380.77	920.00
381.04	946.00
381.30	970.00
381.56	982.00
381.83	949.00
382.09	940.00
382.35	954.00
382.62	972.00
382.88	942.00
383.14	942.00
383.41	944.00
383.67	922.00
383.93	941.00
384.20	944.00
384.46	977.00
384.72	998.00
384.98	923.00
385.25	945.00
385.51	976.00
385.77	969.00
386.04	923.00
386.30	912.00
386.56	948.00
386.82	991.00
387.09	927.00
387.35	964.00
387.61	1031.00
387.88	972.00
388.14	924.00
388.40	935.00
388.67	952.00
388.93	942.00
389.19	919.00
389.45	923.00
389.72	956.00
389.98	973.00
390.24	940.00
390.51	942.00
390.77	979.00
391.03	992.00
391.29	918.00
391.56	924.00
391.82	958.00
392.08	1009.00
392.35	916.00
392.61	913.00
392.87	962.00
393.13	977.00
393.40	911.00
393.66	931.00
393.92	948.00
394.18	968.00
394.45	913.00
394.71	927.00
394.97	937.00
395.24	932.00
395.50	923.00
395.76	970.00
396.02	971.00
396.29	977.00
396.55	910.00
396.81	882.00
397.07	929.00
397.34	926.00
397.60	900.00
397.86	904.00
398.12	946.00
398.39	984.00
398.65	926.00
398.91	939.00
399.17	969.00
399.44	903.00
399.70	890.00
399.96	926.00
400.22	943.00
400.49	955.00
400.75	937.00
401.01	937.00
401.27	955.00
401.54	978.00
401.80	920.00
402.06	920.00
402.32	983.00
402.59	949.00
402.85	916.00
403.11	910.00
403.37	923.00
403.64	958.00
403.90	927.00
404.16	946.00
404.42	950.00
404.69	934.00
404.95	945.00
405.21	902.00
405.47	933.00
405.74	970.00
406.00	932.00
406.26	908.00
406.52	957.00
406.79	970.00
407.05	918.00
407.31	933.00
407.57	932.00
407.83	965.00
408.10	904.00
408.36	921.00
408.62	946.00
408.88	935.00
409.15	916.00
409.41	891.00
409.67	921.00
409.93	962.00
410.20	926.00
410.46	920.00
410.72	951.00
410.98	936.00
411.24	916.00
411.51	924.00
411.77	928.00
412.03	954.00
412.29	955.00
412.55	972.00
412.82	934.00
413.08	969.00
413.34	948.00
413.60	942.00
413.87	943.00
414.13	950.00
414.39	914.00
414.65	939.00
414.91	942.00
415.18	942.00
415.44	911.00
415.70	908.00
415.96	934.00
416.22	946.00
416.49	924.00
416.75	929.00
417.01	961.00
417.27	946.00
417.53	915.00
417.80	943.00
418.06	959.00
418.32	963.00
418.58	918.00
418.84	922.00
419.11	954.00
419.37	968.00
419.63	905.00
419.89	917.00
420.15	958.00
420.42	948.00
420.68	915.00
420.94	932.00
421.20	954.00
421.46	972.00
421.72	949.00
421.99	953.00
422.25	965.00
422.51	966.00
422.77	935.00
423.03	940.00
423.30	937.00
423.56	963.00
423.82	951.00
424.08	969.00
424.34	982.00
424.60	934.00
424.87	921.00
425.13	911.00
425.39	947.00
425.65	950.00
425.91	910.00
426.18	934.00
426.44	946.00
426.70	925.00
426.96	888.00
427.22	897.00
427.48	932.00
427.75	936.00
428.01	897.00
428.27	927.00
428.53	956.00
428.79	930.00
429.05	914.00
429.32	922.00
429.58	968.00
429.84	931.00
430.10	947.00
430.36	940.00
430.62	981.00
430.88	974.00
431.15	932.00
431.41	935.00
431.67	953.00
431.93	926.00
432.19	889.00
432.45	926.00
432.72	954.00
432.98	949.00
433.24	953.00
433.50	1041.00
433.76	949.00
434.02	948.00
434.28	912.00
434.55	930.00
434.81	962.00
435.07	960.00
435.33	889.00
435.59	899.00
435.85	923.00
436.11	955.00
436.38	903.00
436.64	918.00
436.90	942.00
437.16	942.00
437.42	909.00
437.68	924.00
437.94	973.00
438.21	980.00
438.47	959.00
438.73	934.00
438.99	950.00
439.25	958.00
439.51	912.00
439.77	911.00
440.03	937.00
440.30	968.00
440.56	935.00
440.82	952.00
441.08	963.00
441.34	946.00
441.60	916.00
441.86	934.00
442.12	956.00
442.39	950.00
442.65	919.00
442.91	917.00
443.17	934.00
443.43	940.00
443.69	946.00
443.95	914.00
444.21	924.00
444.47	954.00
444.74	908.00
445.00	929.00
445.26	947.00
445.52	962.00
445.78	929.00
446.04	928.00
446.30	982.00
446.56	972.00
446.82	919.00
447.09	920.00
447.35	953.00
447.61	958.00
447.87	925.00
448.13	925.00
448.39	979.00
448.65	963.00
448.91	894.00
449.17	909.00
449.43	924.00
449.70	945.00
449.96	922.00
450.22	921.00
450.48	946.00
450.74	975.00
451.00	936.00
451.26	945.00
451.52	944.00
451.78	937.00
452.04	926.00
452.31	956.00
452.57	964.00
452.83	946.00
453.09	928.00
453.35	928.00
453.61	962.00
453.87	950.00
454.13	950.00
454.39	953.00
454.65	1005.00
454.91	980.00
455.17	929.00
455.44	923.00
455.70	959.00
455.96	962.00
456.22	913.00
456.48	920.00
456.74	934.00
457.00	906.00
457.26	868.00
457.52	910.00
457.78	925.00
458.04	947.00
458.30	903.00
458.56	944.00
458.82	933.00
459.09	915.00
459.35	880.00
459.61	893.00
459.87	957.00
460.13	962.00
460.39	921.00
460.65	906.00
460.91	963.00
461.17	949.00
461.43	911.00
461.69	909.00
461.95	938.00
462.21	931.00
462.47	928.00
462.73	962.00
462.99	968.00
463.26	944.00
463.52	910.00
463.78	894.00
464.04	927.00
464.30	927.00
464.56	893.00
464.82	939.00
465.08	974.00
465.34	982.00
465.60	933.00
465.86	916.00
466.12	920.00
466.38	896.00
466.64	891.00
466.90	917.00
467.16	934.00
467.42	961.00
467.68	903.00
467.94	925.00
468.20	976.00
468.46	939.00
468.72	926.00
468.98	932.00
469.25	949.00
469.51	908.00
469.77	931.00
470.03	935.00
470.29	935.00
470.55	954.00
470.81	916.00
471.07	916.00
471.33	951.00
471.59	967.00
471.85	925.00
472.11	936.00
472.37	952.00
472.63	946.00
472.89	956.00
473.15	934.00
473.41	941.00
473.67	923.00
473.93	891.00
474.19	888.00
474.45	910.00
474.71	937.00
474.97	905.00
475.23	903.00
475.49	918.00
475.75	923.00
476.01	921.00
476.27	966.00
476.53	982.00
476.79	969.00
477.05	921.00
477.31	906.00
477.57	945.00
477.83	954.00
478.09	887.00
478.35	935.00
478.61	979.00
478.87	949.00
479.13	903.00
479.39	946.00
479.65	965.00
479.91	968.00
480.17	927.00
480.43	958.00
480.69	936.00
480.95	957.00
481.21	923.00
481.47	924.00
481.73	941.00
481.99	921.00
482.25	900.00
482.51	907.00
482.77	974.00
483.03	952.00
483.29	930.00
483.55	922.00
483.81	971.00
484.07	963.00
484.33	906.00
484.59	923.00
484.85	962.00
485.11	957.00
485.37	913.00
485.63	911.00
485.89	922.00
486.15	914.00
486.41	889.00
486.67	905.00
486.93	936.00
487.19	925.00
487.45	914.00
487.71	915.00
487.97	962.00
488.23	950.00
488.49	897.00
488.75	892.00
489.01	933.00
489.27	959.00
489.53	917.00
489.79	921.00
490.05	943.00
490.31	975.00
490.57	963.00
490.83	980.00
491.08	934.00
491.34	915.00
491.60	894.00
491.86	935.00
492.12	971.00
492.38	965.00
492.64	903.00
492.90	902.00
493.16	950.00
493.42	917.00
493.68	903.00
493.94	937.00
494.20	937.00
494.46	958.00
494.72	925.00
494.98	922.00
495.24	921.00
495.50	947.00
495.76	942.00
496.02	936.00
496.28	969.00
496.54	969.00
496.80	922.00
497.05	889.00
497.31	958.00
497.57	964.00
497.83	916.00
498.09	945.00
498.35	969.00
498.61	956.00
498.87	926.00
499.13	922.00
499.39	941.00
499.65	915.00
499.91	925.00
500.17	936.00
500.43	1023.00
500.69	1021.00
500.95	910.00
501.20	956.00
501.46	980.00
501.72	957.00
501.98	942.00
502.24	947.00
502.50	982.00
502.76	947.00
503.02	914.00
503.28	931.00
503.54	979.00
503.80	970.00
504.06	955.00
504.32	963.00
504.58	961.00
504.83	958.00
505.09	912.00
505.35	944.00
505.61	917.00
505.87	925.00
506.13	918.00
506.39	917.00
506.65	961.00
506.91	985.00
507.17	926.00
507.43	909.00
507.68	924.00
507.94	964.00
508.20	919.00
508.46	918.00
508.72	974.00
508.98	975.00
509.24	920.00
509.50	942.00
509.76	925.00
510.02	925.00
510.28	906.00
510.53	935.00
510.79	966.00
511.05	942.00
511.31	926.00
511.57	926.00
511.83	948.00
512.09	958.00
512.35	929.00
512.61	948.00
512.87	946.00
513.12	958.00
513.38	903.00
513.64	926.00
513.90	948.00
514.16	994.00
514.42	946.00
514.68	929.00
514.94	961.00
515.20	963.00
515.45	929.00
515.71	909.00
515.97	936.00
516.23	927.00
516.49	911.00
516.75	931.00
517.01	946.00
517.27	932.00
517.53	912.00
517.78	924.00
518.04	939.00
518.30	920.00
518.56	910.00
518.82	946.00
519.08	969.00
519.34	928.00
519.60	914.00
519.85	925.00
520.11	932.00
520.37	929.00
520.63	922.00
520.89	942.00
521.15	960.00
521.41	945.00
521.66	925.00
521.92	926.00
522.18	953.00
522.44	956.00
522.70	926.00
522.96	893.00
523.22	953.00
523.48	956.00
523.73	907.00
523.99	905.00
524.25	977.00
524.51	974.00
524.77	922.00
525.03	912.00
525.29	950.00
525.54	960.00
525.80	914.00
526.06	930.00
526.32	947.00
526.58	939.00
526.84	909.00
527.09	904.00
527.35	936.00
527.61	941.00
527.87	905.00
528.13	941.00
528.39	927.00
528.65	921.00
528.90	876.00
529.16	917.00
529.42	917.00
529.68	916.00
529.94	896.00
530.20	923.00
530.45	922.00
530.71	948.00
530.97	917.00
531.23	924.00
531.49	935.00
531.75	949.00
532.00	944.00
532.26	914.00
532.52	961.00
532.78	936.00
533.04	914.00
533.30	896.00
533.55	923.00
533.81	925.00
534.07	886.00
534.33	908.00
534.59	947.00
534.85	939.00
535.10	900.00
535.36	905.00
