SpectraSuite Data File
++++++++++++++++++++++++++++++++++++
Date: Fri Nov 29 15:20:25 CET 2024
User: student
Dark Spectrum Present: No
Reference Spectrum Present: No
Number of Sampled Component Spectra: 1
Spectrometers: HR4C155
Integration Time (usec): 100000 (HR4C155)
Spectra Averaged: 1 (HR4C155)
Boxcar Smoothing: 0 (HR4C155)
Correct for Electrical Dark: No (HR4C155)
Strobe/Lamp Enabled: No (HR4C155)
Correct for Detector Non-linearity: No (HR4C155)
Correct for Stray Light: No (HR4C155)
Number of Pixels in Processed Spectrum: 3648
>>>>>Begin Processed Spectral Data<<<<<
195.39	752.00
195.66	752.00
195.93	752.00
196.20	714.00
196.46	753.00
196.73	874.00
197.00	895.00
197.27	871.00
197.54	895.00
197.81	913.00
198.08	892.00
198.35	915.00
198.61	925.00
198.88	905.00
199.15	893.00
199.42	915.00
199.69	929.00
199.96	900.00
200.23	933.00
200.49	937.00
200.76	939.00
201.03	928.00
201.30	923.00
201.57	971.00
201.84	976.00
202.11	934.00
202.38	962.00
202.64	971.00
202.91	975.00
203.18	913.00
203.45	977.00
203.72	1053.00
203.99	974.00
204.25	968.00
204.52	962.00
204.79	990.00
205.06	997.00
205.33	935.00
205.60	948.00
205.87	980.00
206.13	979.00
206.40	937.00
206.67	938.00
206.94	992.00
207.21	982.00
207.48	952.00
207.75	937.00
208.01	986.00
208.28	983.00
208.55	946.00
208.82	953.00
209.09	947.00
209.36	975.00
209.62	951.00
209.89	966.00
210.16	999.00
210.43	1022.00
210.70	946.00
210.97	953.00
211.23	985.00
211.50	1006.00
211.77	929.00
212.04	940.00
212.31	948.00
212.58	1002.00
212.84	958.00
213.11	962.00
213.38	942.00
213.65	950.00
213.92	942.00
214.18	958.00
214.45	994.00
214.72	990.00
214.99	950.00
215.26	967.00
215.53	938.00
215.79	981.00
216.06	972.00
216.33	969.00
216.60	951.00
216.87	990.00
217.13	919.00
217.40	910.00
217.67	962.00
217.94	993.00
218.21	927.00
218.48	973.00
218.74	1013.00
219.01	976.00
219.28	909.00
219.55	922.00
219.82	968.00
220.08	978.00
220.35	945.00
220.62	936.00
220.89	982.00
221.16	1020.00
221.42	973.00
221.69	966.00
221.96	976.00
222.23	1010.00
222.50	983.00
222.76	985.00
223.03	949.00
223.30	949.00
223.57	929.00
223.84	925.00
224.10	934.00
224.37	961.00
224.64	918.00
224.91	937.00
225.18	994.00
225.44	1002.00
225.71	941.00
225.98	967.00
226.25	986.00
226.51	985.00
226.78	923.00
227.05	932.00
227.32	973.00
227.59	983.00
227.85	968.00
228.12	957.00
228.39	997.00
228.66	996.00
228.92	994.00
229.19	962.00
229.46	986.00
229.73	945.00
230.00	931.00
230.26	960.00
230.53	992.00
230.80	969.00
231.07	923.00
231.33	929.00
231.60	972.00
231.87	980.00
232.14	942.00
232.41	990.00
232.67	978.00
232.94	987.00
233.21	941.00
233.48	957.00
233.74	971.00
234.01	969.00
234.28	948.00
234.55	955.00
234.81	948.00
235.08	997.00
235.35	964.00
235.62	935.00
235.88	966.00
236.15	986.00
236.42	942.00
236.69	948.00
236.95	964.00
237.22	948.00
237.49	935.00
237.76	927.00
238.02	973.00
238.29	1002.00
238.56	957.00
238.83	953.00
239.09	955.00
239.36	977.00
239.63	925.00
239.90	950.00
240.16	1004.00
240.43	1029.00
240.70	954.00
240.97	950.00
241.23	965.00
241.50	975.00
241.77	956.00
242.04	961.00
242.30	915.00
242.57	955.00
242.84	938.00
243.11	958.00
243.37	938.00
243.64	1001.00
243.91	940.00
244.18	937.00
244.44	922.00
244.71	940.00
244.98	930.00
245.24	941.00
245.51	959.00
245.78	997.00
246.05	935.00
246.31	944.00
246.58	986.00
246.85	944.00
247.12	930.00
247.38	985.00
247.65	968.00
247.92	977.00
248.18	949.00
248.45	946.00
248.72	947.00
248.99	959.00
249.25	915.00
249.52	941.00
249.79	966.00
250.05	961.00
250.32	933.00
250.59	941.00
250.86	957.00
251.12	972.00
251.39	936.00
251.66	968.00
251.92	992.00
252.19	993.00
252.46	925.00
252.73	988.00
252.99	999.00
253.26	1016.00
253.53	930.00
253.79	963.00
254.06	981.00
254.33	945.00
254.60	906.00
254.86	920.00
255.13	983.00
255.40	1016.00
255.66	950.00
255.93	976.00
256.20	981.00
256.46	978.00
256.73	940.00
257.00	954.00
257.26	973.00
257.53	979.00
257.80	964.00
258.07	964.00
258.33	997.00
258.60	986.00
258.87	933.00
259.13	951.00
259.40	938.00
259.67	995.00
259.93	977.00
260.20	970.00
260.47	983.00
260.73	954.00
261.00	941.00
261.27	963.00
261.53	966.00
261.80	955.00
262.07	929.00
262.34	946.00
262.60	937.00
262.87	968.00
263.14	941.00
263.40	973.00
263.67	951.00
263.94	952.00
264.20	957.00
264.47	925.00
264.74	939.00
265.00	961.00
265.27	915.00
265.54	933.00
265.80	973.00
266.07	1004.00
266.34	934.00
266.60	937.00
266.87	971.00
267.14	978.00
267.40	929.00
267.67	929.00
267.94	969.00
268.20	953.00
268.47	910.00
268.74	930.00
269.00	961.00
269.27	937.00
269.54	905.00
269.80	926.00
270.07	976.00
270.33	946.00
270.60	919.00
270.87	965.00
271.13	947.00
271.40	960.00
271.67	899.00
271.93	896.00
272.20	963.00
272.47	954.00
272.73	915.00
273.00	938.00
273.27	966.00
273.53	982.00
273.80	942.00
274.07	926.00
274.33	954.00
274.60	966.00
274.86	936.00
275.13	945.00
275.40	946.00
275.66	985.00
275.93	928.00
276.20	931.00
276.46	952.00
276.73	952.00
277.00	938.00
277.26	959.00
277.53	989.00
277.79	958.00
278.06	925.00
278.33	981.00
278.59	974.00
278.86	946.00
279.13	922.00
279.39	947.00
279.66	988.00
279.93	994.00
280.19	925.00
280.46	940.00
280.72	957.00
280.99	969.00
281.26	951.00
281.52	928.00
281.79	955.00
282.05	946.00
282.32	938.00
282.59	958.00
282.85	988.00
283.12	981.00
283.39	931.00
283.65	948.00
283.92	956.00
284.18	987.00
284.45	941.00
284.72	955.00
284.98	956.00
285.25	937.00
285.51	953.00
285.78	951.00
286.05	945.00
286.31	953.00
286.58	911.00
286.84	920.00
287.11	959.00
287.38	974.00
287.64	954.00
287.91	922.00
288.17	974.00
288.44	956.00
288.71	908.00
288.97	937.00
289.24	983.00
289.50	961.00
289.77	949.00
290.04	920.00
290.30	939.00
290.57	981.00
290.83	915.00
291.10	917.00
291.37	957.00
291.63	953.00
291.90	963.00
292.16	944.00
292.43	969.00
292.70	961.00
292.96	906.00
293.23	919.00
293.49	941.00
293.76	978.00
294.02	929.00
294.29	938.00
294.56	953.00
294.82	965.00
295.09	943.00
295.35	943.00
295.62	980.00
295.89	999.00
296.15	922.00
296.42	932.00
296.68	940.00
296.95	958.00
297.21	954.00
297.48	945.00
297.75	954.00
298.01	999.00
298.28	939.00
298.54	946.00
298.81	963.00
299.07	968.00
299.34	913.00
299.61	937.00
299.87	978.00
300.14	961.00
300.40	970.00
300.67	963.00
300.93	966.00
301.20	1014.00
301.46	922.00
301.73	944.00
302.00	956.00
302.26	940.00
302.53	937.00
302.79	954.00
303.06	963.00
303.32	998.00
303.59	929.00
303.85	910.00
304.12	942.00
304.39	970.00
304.65	945.00
304.92	942.00
305.18	959.00
305.45	968.00
305.71	936.00
305.98	946.00
306.24	951.00
306.51	945.00
306.77	923.00
307.04	947.00
307.31	986.00
307.57	985.00
307.84	919.00
308.10	927.00
308.37	908.00
308.63	943.00
308.90	941.00
309.16	942.00
309.43	961.00
309.69	943.00
309.96	939.00
310.22	925.00
310.49	962.00
310.76	972.00
311.02	912.00
311.29	939.00
311.55	944.00
311.82	969.00
312.08	956.00
312.35	948.00
312.61	970.00
312.88	982.00
313.14	923.00
313.41	908.00
313.67	922.00
313.94	969.00
314.20	951.00
314.47	961.00
314.73	933.00
315.00	929.00
315.26	908.00
315.53	962.00
315.79	966.00
316.06	977.00
316.32	935.00
316.59	964.00
316.85	944.00
317.12	952.00
317.39	914.00
317.65	936.00
317.92	956.00
318.18	966.00
318.45	937.00
318.71	969.00
318.98	992.00
319.24	971.00
319.51	936.00
319.77	929.00
320.04	948.00
320.30	949.00
320.57	927.00
320.83	917.00
321.10	916.00
321.36	953.00
321.63	908.00
321.89	935.00
322.16	989.00
322.42	975.00
322.69	916.00
322.95	938.00
323.22	976.00
323.48	975.00
323.75	927.00
324.01	949.00
324.28	963.00
324.54	957.00
324.80	923.00
325.07	945.00
325.33	973.00
325.60	948.00
325.86	919.00
326.13	925.00
326.39	951.00
326.66	931.00
326.92	890.00
327.19	933.00
327.45	990.00
327.72	982.00
327.98	927.00
328.25	920.00
328.51	940.00
328.78	968.00
329.04	924.00
329.31	955.00
329.57	943.00
329.84	955.00
330.10	932.00
330.37	932.00
330.63	975.00
330.89	991.00
331.16	934.00
331.42	949.00
331.69	997.00
331.95	952.00
332.22	940.00
332.48	994.00
332.75	970.00
333.01	936.00
333.28	931.00
333.54	934.00
333.81	950.00
334.07	981.00
334.34	948.00
334.60	946.00
334.86	996.00
335.13	1015.00
335.39	959.00
335.66	955.00
335.92	982.00
336.19	964.00
336.45	893.00
336.72	909.00
336.98	933.00
337.24	970.00
337.51	921.00
337.77	940.00
338.04	952.00
338.30	957.00
338.57	919.00
338.83	941.00
339.10	953.00
339.36	961.00
339.63	930.00
339.89	898.00
340.15	937.00
340.42	956.00
340.68	946.00
340.95	965.00
341.21	949.00
341.48	965.00
341.74	911.00
342.00	918.00
342.27	958.00
342.53	968.00
342.80	923.00
343.06	938.00
343.33	956.00
343.59	958.00
343.85	917.00
344.12	944.00
344.38	1011.00
344.65	1000.00
344.91	922.00
345.18	920.00
345.44	939.00
345.70	935.00
345.97	897.00
346.23	933.00
346.50	960.00
346.76	958.00
347.03	946.00
347.29	938.00
347.55	934.00
347.82	934.00
348.08	898.00
348.35	916.00
348.61	979.00
348.87	962.00
349.14	927.00
349.40	915.00
349.67	958.00
349.93	959.00
350.20	938.00
350.46	954.00
350.72	996.00
350.99	958.00
351.25	946.00
351.52	930.00
351.78	934.00
352.04	951.00
352.31	937.00
352.57	925.00
352.84	944.00
353.10	974.00
353.36	934.00
353.63	924.00
353.89	949.00
354.16	967.00
354.42	941.00
354.68	946.00
354.95	981.00
355.21	964.00
355.48	920.00
355.74	950.00
356.00	989.00
356.27	976.00
356.53	912.00
356.80	932.00
357.06	971.00
357.32	985.00
357.59	951.00
357.85	950.00
358.11	1005.00
358.38	978.00
358.64	943.00
358.91	938.00
359.17	949.00
359.43	964.00
359.70	955.00
359.96	942.00
360.22	974.00
360.49	955.00
360.75	947.00
361.02	923.00
361.28	935.00
361.54	948.00
361.81	910.00
362.07	930.00
362.33	945.00
362.60	947.00
362.86	919.00
363.13	950.00
363.39	981.00
363.65	977.00
363.92	895.00
364.18	905.00
364.44	941.00
364.71	960.00
364.97	921.00
365.24	931.00
365.50	967.00
365.76	976.00
366.03	935.00
366.29	944.00
366.55	983.00
366.82	945.00
367.08	898.00
367.34	935.00
367.61	962.00
367.87	975.00
368.13	944.00
368.40	937.00
368.66	997.00
368.93	975.00
369.19	904.00
369.45	908.00
369.72	949.00
369.98	940.00
370.24	902.00
370.51	927.00
370.77	971.00
371.03	962.00
371.30	939.00
371.56	950.00
371.82	977.00
372.09	965.00
372.35	954.00
372.61	939.00
372.88	950.00
373.14	963.00
373.40	931.00
373.67	943.00
373.93	961.00
374.19	953.00
374.46	912.00
374.72	926.00
374.98	947.00
375.25	961.00
375.51	962.00
375.77	973.00
376.04	966.00
376.30	957.00
376.56	905.00
376.83	914.00
377.09	966.00
377.35	963.00
377.62	934.00
377.88	927.00
378.14	942.00
378.41	970.00
378.67	935.00
378.93	925.00
379.20	970.00
379.46	939.00
379.72	917.00
379.99	932.00
380.25	938.00
380.51	940.00
380.77	930.00
381.04	929.00
381.30	970.00
381.56	1005.00
381.83	961.00
382.09	947.00
382.35	956.00
382.62	988.00
382.88	958.00
383.14	938.00
383.41	953.00
383.67	939.00
383.93	952.00
384.20	944.00
384.46	948.00
384.72	982.00
384.98	921.00
385.25	952.00
385.51	969.00
385.77	968.00
386.04	926.00
386.30	925.00
386.56	984.00
386.82	1021.00
387.09	941.00
387.35	968.00
387.61	1053.00
387.88	992.00
388.14	944.00
388.40	944.00
388.67	942.00
388.93	939.00
389.19	931.00
389.45	918.00
389.72	958.00
389.98	962.00
390.24	929.00
390.51	926.00
390.77	979.00
391.03	974.00
391.29	911.00
391.56	938.00
391.82	979.00
392.08	1002.00
392.35	935.00
392.61	933.00
392.87	974.00
393.13	983.00
393.40	928.00
393.66	957.00
393.92	972.00
394.18	980.00
394.45	907.00
394.71	924.00
394.97	941.00
395.24	925.00
395.50	905.00
395.76	951.00
396.02	965.00
396.29	956.00
396.55	902.00
396.81	890.00
397.07	941.00
397.34	927.00
397.60	915.00
397.86	909.00
398.12	941.00
398.39	984.00
398.65	926.00
398.91	941.00
399.17	947.00
399.44	907.00
399.70	880.00
399.96	913.00
400.22	933.00
400.49	985.00
400.75	945.00
401.01	921.00
401.27	937.00
401.54	974.00
401.80	930.00
402.06	932.00
402.32	984.00
402.59	942.00
402.85	919.00
403.11	926.00
403.37	948.00
403.64	997.00
403.90	929.00
404.16	928.00
404.42	930.00
404.69	927.00
404.95	903.00
405.21	883.00
405.47	932.00
405.74	961.00
406.00	936.00
406.26	925.00
406.52	938.00
406.79	948.00
407.05	923.00
407.31	937.00
407.57	933.00
407.83	962.00
408.10	893.00
408.36	897.00
408.62	928.00
408.88	948.00
409.15	935.00
409.41	895.00
409.67	920.00
409.93	976.00
410.20	941.00
410.46	922.00
410.72	931.00
410.98	956.00
411.24	933.00
411.51	939.00
411.77	922.00
412.03	933.00
412.29	950.00
412.55	963.00
412.82	928.00
413.08	946.00
413.34	950.00
413.60	943.00
413.87	944.00
414.13	951.00
414.39	904.00
414.65	946.00
414.91	980.00
415.18	945.00
415.44	910.00
415.70	926.00
415.96	946.00
416.22	940.00
416.49	919.00
416.75	932.00
417.01	960.00
417.27	950.00
417.53	928.00
417.80	939.00
418.06	972.00
418.32	976.00
418.58	910.00
418.84	893.00
419.11	955.00
419.37	957.00
419.63	909.00
419.89	909.00
420.15	933.00
420.42	946.00
420.68	915.00
420.94	918.00
421.20	929.00
421.46	933.00
421.72	932.00
421.99	927.00
422.25	956.00
422.51	949.00
422.77	936.00
423.03	945.00
423.30	949.00
423.56	960.00
423.82	970.00
424.08	959.00
424.34	951.00
424.60	938.00
424.87	911.00
425.13	926.00
425.39	945.00
425.65	940.00
425.91	923.00
426.18	946.00
426.44	954.00
426.70	921.00
426.96	895.00
427.22	902.00
427.48	937.00
427.75	948.00
428.01	907.00
428.27	938.00
428.53	971.00
428.79	933.00
429.05	916.00
429.32	936.00
429.58	994.00
429.84	946.00
430.10	934.00
430.36	942.00
430.62	984.00
430.88	977.00
431.15	942.00
431.41	948.00
431.67	955.00
431.93	926.00
432.19	882.00
432.45	929.00
432.72	958.00
432.98	941.00
433.24	941.00
433.50	1019.00
433.76	945.00
434.02	944.00
434.28	934.00
434.55	936.00
434.81	967.00
435.07	951.00
435.33	907.00
435.59	916.00
435.85	937.00
436.11	968.00
436.38	899.00
436.64	915.00
436.90	934.00
437.16	939.00
437.42	927.00
437.68	956.00
437.94	959.00
438.21	969.00
438.47	956.00
438.73	938.00
438.99	925.00
439.25	952.00
439.51	919.00
439.77	933.00
440.03	930.00
440.30	973.00
440.56	935.00
440.82	953.00
441.08	956.00
441.34	945.00
441.60	911.00
441.86	928.00
442.12	954.00
442.39	951.00
442.65	907.00
442.91	910.00
443.17	922.00
443.43	942.00
443.69	948.00
443.95	918.00
444.21	920.00
444.47	960.00
444.74	920.00
445.00	928.00
445.26	942.00
445.52	957.00
445.78	923.00
446.04	937.00
446.30	983.00
446.56	963.00
446.82	902.00
447.09	921.00
447.35	969.00
447.61	953.00
447.87	924.00
448.13	949.00
448.39	999.00
448.65	963.00
448.91	924.00
449.17	931.00
449.43	941.00
449.70	933.00
449.96	900.00
450.22	919.00
450.48	934.00
450.74	972.00
451.00	935.00
451.26	940.00
451.52	935.00
451.78	931.00
452.04	909.00
452.31	942.00
452.57	952.00
452.83	922.00
453.09	908.00
453.35	905.00
453.61	922.00
453.87	948.00
454.13	953.00
454.39	950.00
454.65	1010.00
454.91	1005.00
455.17	923.00
455.44	907.00
455.70	956.00
455.96	977.00
456.22	918.00
456.48	921.00
456.74	948.00
457.00	907.00
457.26	867.00
457.52	915.00
457.78	950.00
458.04	960.00
458.30	904.00
458.56	944.00
458.82	932.00
459.09	901.00
459.35	849.00
459.61	876.00
459.87	924.00
460.13	953.00
460.39	914.00
460.65	910.00
460.91	960.00
461.17	934.00
461.43	891.00
461.69	901.00
461.95	936.00
462.21	930.00
462.47	935.00
462.73	970.00
462.99	967.00
463.26	943.00
463.52	890.00
463.78	903.00
464.04	917.00
464.30	937.00
464.56	906.00
464.82	926.00
465.08	973.00
465.34	970.00
465.60	939.00
465.86	935.00
466.12	942.00
466.38	902.00
466.64	886.00
466.90	916.00
467.16	935.00
467.42	954.00
467.68	905.00
467.94	941.00
468.20	964.00
468.46	949.00
468.72	927.00
468.98	942.00
469.25	947.00
469.51	920.00
469.77	928.00
470.03	932.00
470.29	936.00
470.55	972.00
470.81	940.00
471.07	942.00
471.33	959.00
471.59	979.00
471.85	926.00
472.11	938.00
472.37	956.00
472.63	953.00
472.89	957.00
473.15	931.00
473.41	941.00
473.67	937.00
473.93	887.00
474.19	898.00
474.45	934.00
474.71	943.00
474.97	918.00
475.23	911.00
475.49	930.00
475.75	928.00
476.01	942.00
476.27	951.00
476.53	965.00
476.79	955.00
477.05	938.00
477.31	922.00
477.57	955.00
477.83	949.00
478.09	886.00
478.35	935.00
478.61	972.00
478.87	942.00
479.13	907.00
479.39	940.00
479.65	976.00
479.91	966.00
480.17	930.00
480.43	949.00
480.69	917.00
480.95	963.00
481.21	916.00
481.47	937.00
481.73	931.00
481.99	924.00
482.25	889.00
482.51	885.00
482.77	951.00
483.03	949.00
483.29	938.00
483.55	931.00
483.81	966.00
484.07	971.00
484.33	902.00
484.59	904.00
484.85	960.00
485.11	949.00
485.37	924.00
485.63	932.00
485.89	919.00
486.15	919.00
486.41	900.00
486.67	917.00
486.93	951.00
487.19	933.00
487.45	911.00
487.71	913.00
487.97	965.00
488.23	962.00
488.49	899.00
488.75	893.00
489.01	946.00
489.27	963.00
489.53	917.00
489.79	911.00
490.05	941.00
490.31	969.00
490.57	946.00
490.83	982.00
491.08	941.00
491.34	923.00
491.60	906.00
491.86	938.00
492.12	999.00
492.38	974.00
492.64	902.00
492.90	913.00
493.16	950.00
493.42	922.00
493.68	893.00
493.94	935.00
494.20	930.00
494.46	931.00
494.72	911.00
494.98	913.00
495.24	942.00
495.50	941.00
495.76	938.00
496.02	952.00
496.28	971.00
496.54	960.00
496.80	917.00
497.05	909.00
497.31	939.00
497.57	937.00
497.83	904.00
498.09	937.00
498.35	971.00
498.61	963.00
498.87	942.00
499.13	940.00
499.39	943.00
499.65	935.00
499.91	926.00
500.17	915.00
500.43	990.00
500.69	1017.00
500.95	902.00
501.20	937.00
501.46	949.00
501.72	966.00
501.98	941.00
502.24	949.00
502.50	970.00
502.76	953.00
503.02	935.00
503.28	940.00
503.54	1005.00
503.80	984.00
504.06	949.00
504.32	966.00
504.58	955.00
504.83	932.00
505.09	902.00
505.35	922.00
505.61	915.00
505.87	949.00
506.13	948.00
506.39	930.00
506.65	971.00
506.91	985.00
507.17	931.00
507.43	921.00
507.68	945.00
507.94	972.00
508.20	915.00
508.46	905.00
508.72	965.00
508.98	985.00
509.24	919.00
509.50	946.00
509.76	958.00
510.02	945.00
510.28	897.00
510.53	931.00
510.79	953.00
511.05	954.00
511.31	923.00
511.57	943.00
511.83	942.00
512.09	954.00
512.35	908.00
512.61	923.00
512.87	948.00
513.12	951.00
513.38	910.00
513.64	921.00
513.90	940.00
514.16	984.00
514.42	932.00
514.68	936.00
514.94	974.00
515.20	959.00
515.45	927.00
515.71	940.00
515.97	953.00
516.23	941.00
516.49	902.00
516.75	921.00
517.01	950.00
517.27	939.00
517.53	900.00
517.78	923.00
518.04	940.00
518.30	928.00
518.56	906.00
518.82	943.00
519.08	976.00
519.34	926.00
519.60	907.00
519.85	925.00
520.11	950.00
520.37	949.00
520.63	921.00
520.89	942.00
521.15	934.00
521.41	937.00
521.66	924.00
521.92	926.00
522.18	941.00
522.44	957.00
522.70	920.00
522.96	899.00
523.22	964.00
523.48	958.00
523.73	930.00
523.99	930.00
524.25	993.00
524.51	958.00
524.77	903.00
525.03	915.00
525.29	936.00
525.54	952.00
525.80	925.00
526.06	918.00
526.32	922.00
526.58	927.00
526.84	908.00
527.09	905.00
527.35	921.00
527.61	937.00
527.87	900.00
528.13	951.00
528.39	928.00
528.65	931.00
528.90	884.00
529.16	925.00
529.42	922.00
529.68	919.00
529.94	914.00
530.20	937.00
530.45	930.00
530.71	927.00
530.97	905.00
531.23	929.00
531.49	940.00
531.75	931.00
532.00	910.00
532.26	908.00
532.52	947.00
532.78	910.00
533.04	889.00
533.30	918.00
533.55	940.00
533.81	936.00
534.07	899.00
534.33	921.00
534.59	970.00
534.85	951.00
535.10	905.00
535.36	900.00
