SpectraSuite Data File
++++++++++++++++++++++++++++++++++++
Date: Fri Nov 29 15:11:35 CET 2024
User: student
Dark Spectrum Present: No
Reference Spectrum Present: No
Number of Sampled Component Spectra: 1
Spectrometers: HR4C155
Integration Time (usec): 100000 (HR4C155)
Spectra Averaged: 1 (HR4C155)
Boxcar Smoothing: 0 (HR4C155)
Correct for Electrical Dark: No (HR4C155)
Strobe/Lamp Enabled: No (HR4C155)
Correct for Detector Non-linearity: No (HR4C155)
Correct for Stray Light: No (HR4C155)
Number of Pixels in Processed Spectrum: 3648
>>>>>Begin Processed Spectral Data<<<<<
195.39	734.00
195.66	734.00
195.93	734.00
196.20	700.00
196.46	742.00
196.73	870.00
197.00	895.00
197.27	889.00
197.54	907.00
197.81	914.00
198.08	918.00
198.35	933.00
198.61	931.00
198.88	895.00
199.15	887.00
199.42	932.00
199.69	952.00
199.96	907.00
200.23	916.00
200.49	925.00
200.76	952.00
201.03	940.00
201.30	934.00
201.57	981.00
201.84	989.00
202.11	931.00
202.38	935.00
202.64	966.00
202.91	973.00
203.18	921.00
203.45	972.00
203.72	1038.00
203.99	970.00
204.25	969.00
204.52	962.00
204.79	976.00
205.06	998.00
205.33	933.00
205.60	944.00
205.87	992.00
206.13	986.00
206.40	956.00
206.67	933.00
206.94	980.00
207.21	971.00
207.48	936.00
207.75	944.00
208.01	979.00
208.28	993.00
208.55	945.00
208.82	957.00
209.09	965.00
209.36	989.00
209.62	962.00
209.89	970.00
210.16	986.00
210.43	1014.00
210.70	934.00
210.97	940.00
211.23	981.00
211.50	1013.00
211.77	949.00
212.04	952.00
212.31	964.00
212.58	991.00
212.84	940.00
213.11	943.00
213.38	942.00
213.65	973.00
213.92	937.00
214.18	942.00
214.45	996.00
214.72	991.00
214.99	915.00
215.26	936.00
215.53	946.00
215.79	991.00
216.06	962.00
216.33	966.00
216.60	941.00
216.87	978.00
217.13	920.00
217.40	936.00
217.67	968.00
217.94	994.00
218.21	921.00
218.48	998.00
218.74	1027.00
219.01	988.00
219.28	922.00
219.55	927.00
219.82	965.00
220.08	971.00
220.35	956.00
220.62	956.00
220.89	998.00
221.16	1016.00
221.42	958.00
221.69	962.00
221.96	986.00
222.23	1003.00
222.50	987.00
222.76	992.00
223.03	967.00
223.30	966.00
223.57	934.00
223.84	921.00
224.10	917.00
224.37	963.00
224.64	928.00
224.91	939.00
225.18	984.00
225.44	1000.00
225.71	937.00
225.98	956.00
226.25	996.00
226.51	990.00
226.78	939.00
227.05	930.00
227.32	941.00
227.59	958.00
227.85	963.00
228.12	940.00
228.39	985.00
228.66	1013.00
228.92	1014.00
229.19	951.00
229.46	981.00
229.73	946.00
230.00	937.00
230.26	971.00
230.53	989.00
230.80	971.00
231.07	910.00
231.33	931.00
231.60	971.00
231.87	997.00
232.14	959.00
232.41	1007.00
232.67	1017.00
232.94	1008.00
233.21	949.00
233.48	957.00
233.74	968.00
234.01	963.00
234.28	937.00
234.55	964.00
234.81	959.00
235.08	1000.00
235.35	940.00
235.62	925.00
235.88	939.00
236.15	993.00
236.42	969.00
236.69	973.00
236.95	1002.00
237.22	968.00
237.49	948.00
237.76	961.00
238.02	999.00
238.29	1014.00
238.56	955.00
238.83	940.00
239.09	969.00
239.36	989.00
239.63	939.00
239.90	941.00
240.16	995.00
240.43	1046.00
240.70	961.00
240.97	946.00
241.23	969.00
241.50	982.00
241.77	961.00
242.04	951.00
242.30	932.00
242.57	948.00
242.84	937.00
243.11	950.00
243.37	932.00
243.64	1012.00
243.91	953.00
244.18	931.00
244.44	936.00
244.71	959.00
244.98	943.00
245.24	938.00
245.51	967.00
245.78	997.00
246.05	935.00
246.31	948.00
246.58	976.00
246.85	953.00
247.12	928.00
247.38	967.00
247.65	983.00
247.92	989.00
248.18	960.00
248.45	962.00
248.72	983.00
248.99	996.00
249.25	940.00
249.52	960.00
249.79	991.00
250.05	974.00
250.32	940.00
250.59	939.00
250.86	950.00
251.12	951.00
251.39	921.00
251.66	952.00
251.92	982.00
252.19	984.00
252.46	942.00
252.73	988.00
252.99	985.00
253.26	986.00
253.53	928.00
253.79	977.00
254.06	991.00
254.33	950.00
254.60	924.00
254.86	948.00
255.13	985.00
255.40	1002.00
255.66	959.00
255.93	970.00
256.20	979.00
256.46	984.00
256.73	937.00
257.00	955.00
257.26	988.00
257.53	1003.00
257.80	957.00
258.07	971.00
258.33	1001.00
258.60	988.00
258.87	928.00
259.13	950.00
259.40	947.00
259.67	1009.00
259.93	965.00
260.20	985.00
260.47	986.00
260.73	957.00
261.00	947.00
261.27	941.00
261.53	981.00
261.80	965.00
262.07	934.00
262.34	956.00
262.60	931.00
262.87	973.00
263.14	931.00
263.40	963.00
263.67	957.00
263.94	958.00
264.20	953.00
264.47	913.00
264.74	929.00
265.00	945.00
265.27	912.00
265.54	938.00
265.80	977.00
266.07	993.00
266.34	919.00
266.60	947.00
266.87	984.00
267.14	990.00
267.40	938.00
267.67	931.00
267.94	976.00
268.20	955.00
268.47	924.00
268.74	932.00
269.00	977.00
269.27	958.00
269.54	897.00
269.80	910.00
270.07	977.00
270.33	946.00
270.60	935.00
270.87	963.00
271.13	944.00
271.40	959.00
271.67	899.00
271.93	923.00
272.20	966.00
272.47	953.00
272.73	922.00
273.00	944.00
273.27	957.00
273.53	993.00
273.80	940.00
274.07	932.00
274.33	936.00
274.60	955.00
274.86	934.00
275.13	959.00
275.40	958.00
275.66	978.00
275.93	920.00
276.20	919.00
276.46	939.00
276.73	933.00
277.00	925.00
277.26	950.00
277.53	984.00
277.79	952.00
278.06	917.00
278.33	981.00
278.59	974.00
278.86	937.00
279.13	923.00
279.39	928.00
279.66	987.00
279.93	1006.00
280.19	943.00
280.46	938.00
280.72	945.00
280.99	977.00
281.26	937.00
281.52	927.00
281.79	961.00
282.05	973.00
282.32	962.00
282.59	965.00
282.85	998.00
283.12	980.00
283.39	938.00
283.65	957.00
283.92	958.00
284.18	989.00
284.45	952.00
284.72	951.00
284.98	966.00
285.25	952.00
285.51	963.00
285.78	966.00
286.05	972.00
286.31	976.00
286.58	921.00
286.84	930.00
287.11	952.00
287.38	979.00
287.64	952.00
287.91	927.00
288.17	963.00
288.44	965.00
288.71	910.00
288.97	941.00
289.24	967.00
289.50	957.00
289.77	955.00
290.04	921.00
290.30	934.00
290.57	982.00
290.83	944.00
291.10	945.00
291.37	972.00
291.63	967.00
291.90	971.00
292.16	960.00
292.43	969.00
292.70	953.00
292.96	906.00
293.23	932.00
293.49	951.00
293.76	955.00
294.02	933.00
294.29	942.00
294.56	977.00
294.82	978.00
295.09	931.00
295.35	929.00
295.62	982.00
295.89	999.00
296.15	925.00
296.42	924.00
296.68	939.00
296.95	956.00
297.21	955.00
297.48	939.00
297.75	960.00
298.01	998.00
298.28	945.00
298.54	957.00
298.81	969.00
299.07	970.00
299.34	906.00
299.61	926.00
299.87	958.00
300.14	955.00
300.40	962.00
300.67	942.00
300.93	961.00
301.20	1008.00
301.46	933.00
301.73	936.00
302.00	959.00
302.26	955.00
302.53	942.00
302.79	944.00
303.06	967.00
303.32	1010.00
303.59	943.00
303.85	938.00
304.12	942.00
304.39	974.00
304.65	942.00
304.92	938.00
305.18	954.00
305.45	965.00
305.71	929.00
305.98	934.00
306.24	948.00
306.51	949.00
306.77	941.00
307.04	945.00
307.31	973.00
307.57	980.00
307.84	915.00
308.10	930.00
308.37	932.00
308.63	957.00
308.90	940.00
309.16	948.00
309.43	981.00
309.69	957.00
309.96	951.00
310.22	940.00
310.49	958.00
310.76	957.00
311.02	925.00
311.29	945.00
311.55	949.00
311.82	970.00
312.08	953.00
312.35	969.00
312.61	984.00
312.88	983.00
313.14	924.00
313.41	934.00
313.67	921.00
313.94	965.00
314.20	934.00
314.47	954.00
314.73	932.00
315.00	934.00
315.26	919.00
315.53	953.00
315.79	950.00
316.06	961.00
316.32	927.00
316.59	943.00
316.85	960.00
317.12	981.00
317.39	917.00
317.65	924.00
317.92	942.00
318.18	975.00
318.45	957.00
318.71	982.00
318.98	981.00
319.24	981.00
319.51	940.00
319.77	934.00
320.04	944.00
320.30	945.00
320.57	914.00
320.83	920.00
321.10	926.00
321.36	934.00
321.63	923.00
321.89	934.00
322.16	994.00
322.42	971.00
322.69	934.00
322.95	926.00
323.22	964.00
323.48	974.00
323.75	929.00
324.01	938.00
324.28	952.00
324.54	973.00
324.80	951.00
325.07	955.00
325.33	968.00
325.60	949.00
325.86	904.00
326.13	937.00
326.39	957.00
326.66	944.00
326.92	892.00
327.19	924.00
327.45	989.00
327.72	997.00
327.98	923.00
328.25	925.00
328.51	964.00
328.78	956.00
329.04	915.00
329.31	942.00
329.57	956.00
329.84	951.00
330.10	915.00
330.37	933.00
330.63	990.00
330.89	1004.00
331.16	940.00
331.42	948.00
331.69	994.00
331.95	954.00
332.22	944.00
332.48	968.00
332.75	973.00
333.01	938.00
333.28	906.00
333.54	925.00
333.81	946.00
334.07	977.00
334.34	945.00
334.60	953.00
334.86	989.00
335.13	989.00
335.39	935.00
335.66	942.00
335.92	973.00
336.19	969.00
336.45	889.00
336.72	921.00
336.98	936.00
337.24	958.00
337.51	909.00
337.77	932.00
338.04	946.00
338.30	964.00
338.57	926.00
338.83	956.00
339.10	985.00
339.36	976.00
339.63	945.00
339.89	920.00
340.15	953.00
340.42	977.00
340.68	941.00
340.95	953.00
341.21	956.00
341.48	955.00
341.74	917.00
342.00	916.00
342.27	961.00
342.53	965.00
342.80	923.00
343.06	929.00
343.33	962.00
343.59	967.00
343.85	929.00
344.12	961.00
344.38	1017.00
344.65	992.00
344.91	922.00
345.18	939.00
345.44	948.00
345.70	935.00
345.97	883.00
346.23	925.00
346.50	977.00
346.76	949.00
347.03	953.00
347.29	942.00
347.55	951.00
347.82	944.00
348.08	904.00
348.35	920.00
348.61	1001.00
348.87	964.00
349.14	910.00
349.40	922.00
349.67	964.00
349.93	939.00
350.20	934.00
350.46	950.00
350.72	970.00
350.99	953.00
351.25	934.00
351.52	919.00
351.78	942.00
352.04	965.00
352.31	926.00
352.57	940.00
352.84	958.00
353.10	953.00
353.36	933.00
353.63	928.00
353.89	958.00
354.16	962.00
354.42	928.00
354.68	948.00
354.95	982.00
355.21	984.00
355.48	913.00
355.74	939.00
356.00	969.00
356.27	967.00
356.53	916.00
356.80	920.00
357.06	955.00
357.32	976.00
357.59	951.00
357.85	959.00
358.11	986.00
358.38	970.00
358.64	926.00
358.91	949.00
359.17	965.00
359.43	982.00
359.70	954.00
359.96	944.00
360.22	967.00
360.49	950.00
360.75	938.00
361.02	920.00
361.28	938.00
361.54	954.00
361.81	913.00
362.07	945.00
362.33	946.00
362.60	947.00
362.86	915.00
363.13	954.00
363.39	989.00
363.65	973.00
363.92	888.00
364.18	905.00
364.44	941.00
364.71	956.00
364.97	933.00
365.24	920.00
365.50	969.00
365.76	982.00
366.03	933.00
366.29	971.00
366.55	978.00
366.82	949.00
367.08	908.00
367.34	949.00
367.61	976.00
367.87	966.00
368.13	937.00
368.40	944.00
368.66	995.00
368.93	985.00
369.19	919.00
369.45	930.00
369.72	971.00
369.98	957.00
370.24	905.00
370.51	920.00
370.77	958.00
371.03	969.00
371.30	943.00
371.56	964.00
371.82	977.00
372.09	947.00
372.35	930.00
372.61	946.00
372.88	953.00
373.14	955.00
373.40	940.00
373.67	949.00
373.93	941.00
374.19	973.00
374.46	938.00
374.72	932.00
374.98	957.00
375.25	954.00
375.51	958.00
375.77	975.00
376.04	977.00
376.30	974.00
376.56	928.00
376.83	933.00
377.09	958.00
377.35	952.00
377.62	933.00
377.88	929.00
378.14	948.00
378.41	978.00
378.67	937.00
378.93	928.00
379.20	958.00
379.46	950.00
379.72	919.00
379.99	939.00
380.25	948.00
380.51	939.00
380.77	927.00
381.04	943.00
381.30	973.00
381.56	985.00
381.83	936.00
382.09	925.00
382.35	946.00
382.62	972.00
382.88	954.00
383.14	947.00
383.41	941.00
383.67	960.00
383.93	952.00
384.20	955.00
384.46	973.00
384.72	996.00
384.98	907.00
385.25	939.00
385.51	975.00
385.77	956.00
386.04	924.00
386.30	928.00
386.56	984.00
386.82	1013.00
387.09	931.00
387.35	951.00
387.61	1014.00
387.88	989.00
388.14	958.00
388.40	942.00
388.67	945.00
388.93	952.00
389.19	932.00
389.45	933.00
389.72	976.00
389.98	981.00
390.24	936.00
390.51	917.00
390.77	964.00
391.03	970.00
391.29	932.00
391.56	950.00
391.82	988.00
392.08	1009.00
392.35	939.00
392.61	929.00
392.87	966.00
393.13	974.00
393.40	922.00
393.66	927.00
393.92	966.00
394.18	985.00
394.45	913.00
394.71	918.00
394.97	940.00
395.24	934.00
395.50	918.00
395.76	948.00
396.02	978.00
396.29	964.00
396.55	923.00
396.81	878.00
397.07	934.00
397.34	932.00
397.60	913.00
397.86	919.00
398.12	939.00
398.39	989.00
398.65	933.00
398.91	943.00
399.17	957.00
399.44	912.00
399.70	887.00
399.96	922.00
400.22	948.00
400.49	972.00
400.75	931.00
401.01	910.00
401.27	932.00
401.54	962.00
401.80	920.00
402.06	926.00
402.32	968.00
402.59	958.00
402.85	924.00
403.11	922.00
403.37	933.00
403.64	984.00
403.90	934.00
404.16	919.00
404.42	949.00
404.69	928.00
404.95	909.00
405.21	894.00
405.47	930.00
405.74	972.00
406.00	932.00
406.26	936.00
406.52	955.00
406.79	969.00
407.05	922.00
407.31	933.00
407.57	925.00
407.83	942.00
408.10	884.00
408.36	901.00
408.62	939.00
408.88	937.00
409.15	914.00
409.41	885.00
409.67	919.00
409.93	976.00
410.20	940.00
410.46	938.00
410.72	947.00
410.98	957.00
411.24	926.00
411.51	940.00
411.77	925.00
412.03	946.00
412.29	957.00
412.55	990.00
412.82	942.00
413.08	966.00
413.34	952.00
413.60	947.00
413.87	952.00
414.13	974.00
414.39	905.00
414.65	945.00
414.91	956.00
415.18	925.00
415.44	905.00
415.70	909.00
415.96	933.00
416.22	939.00
416.49	924.00
416.75	928.00
417.01	947.00
417.27	951.00
417.53	938.00
417.80	946.00
418.06	963.00
418.32	980.00
418.58	928.00
418.84	900.00
419.11	955.00
419.37	959.00
419.63	922.00
419.89	935.00
420.15	946.00
420.42	944.00
420.68	924.00
420.94	944.00
421.20	959.00
421.46	957.00
421.72	958.00
421.99	939.00
422.25	954.00
422.51	967.00
422.77	945.00
423.03	945.00
423.30	960.00
423.56	980.00
423.82	946.00
424.08	955.00
424.34	962.00
424.60	965.00
424.87	939.00
425.13	932.00
425.39	930.00
425.65	919.00
425.91	910.00
426.18	949.00
426.44	964.00
426.70	937.00
426.96	889.00
427.22	897.00
427.48	923.00
427.75	943.00
428.01	905.00
428.27	935.00
428.53	976.00
428.79	939.00
429.05	911.00
429.32	941.00
429.58	984.00
429.84	925.00
430.10	934.00
430.36	946.00
430.62	977.00
430.88	965.00
431.15	936.00
431.41	939.00
431.67	934.00
431.93	935.00
432.19	898.00
432.45	924.00
432.72	949.00
432.98	928.00
433.24	947.00
433.50	1034.00
433.76	956.00
434.02	917.00
434.28	904.00
434.55	904.00
434.81	949.00
435.07	956.00
435.33	907.00
435.59	924.00
435.85	921.00
436.11	956.00
436.38	925.00
436.64	933.00
436.90	940.00
437.16	938.00
437.42	929.00
437.68	921.00
437.94	966.00
438.21	987.00
438.47	968.00
438.73	943.00
438.99	946.00
439.25	957.00
439.51	916.00
439.77	933.00
440.03	948.00
440.30	949.00
440.56	929.00
440.82	954.00
441.08	972.00
441.34	956.00
441.60	891.00
441.86	928.00
442.12	948.00
442.39	955.00
442.65	924.00
442.91	915.00
443.17	930.00
443.43	954.00
443.69	933.00
443.95	907.00
444.21	926.00
444.47	964.00
444.74	922.00
445.00	944.00
445.26	938.00
445.52	943.00
445.78	922.00
446.04	934.00
446.30	990.00
446.56	978.00
446.82	925.00
447.09	952.00
447.35	958.00
447.61	945.00
447.87	930.00
448.13	934.00
448.39	974.00
448.65	966.00
448.91	916.00
449.17	911.00
449.43	940.00
449.70	941.00
449.96	907.00
450.22	911.00
450.48	958.00
450.74	996.00
451.00	934.00
451.26	932.00
451.52	927.00
451.78	923.00
452.04	912.00
452.31	943.00
452.57	955.00
452.83	942.00
453.09	914.00
453.35	934.00
453.61	956.00
453.87	954.00
454.13	959.00
454.39	962.00
454.65	1006.00
454.91	987.00
455.17	902.00
455.44	918.00
455.70	945.00
455.96	962.00
456.22	925.00
456.48	926.00
456.74	951.00
457.00	903.00
457.26	884.00
457.52	901.00
457.78	933.00
458.04	957.00
458.30	898.00
458.56	907.00
458.82	937.00
459.09	922.00
459.35	875.00
459.61	906.00
459.87	957.00
460.13	971.00
460.39	922.00
460.65	904.00
460.91	956.00
461.17	940.00
461.43	898.00
461.69	898.00
461.95	941.00
462.21	938.00
462.47	931.00
462.73	960.00
462.99	978.00
463.26	947.00
463.52	906.00
463.78	899.00
464.04	933.00
464.30	962.00
464.56	926.00
464.82	942.00
465.08	982.00
465.34	986.00
465.60	926.00
465.86	936.00
466.12	935.00
466.38	937.00
466.64	909.00
466.90	933.00
467.16	940.00
467.42	955.00
467.68	908.00
467.94	944.00
468.20	977.00
468.46	941.00
468.72	917.00
468.98	944.00
469.25	952.00
469.51	915.00
469.77	930.00
470.03	931.00
470.29	938.00
470.55	946.00
470.81	927.00
471.07	927.00
471.33	942.00
471.59	962.00
471.85	943.00
472.11	946.00
472.37	964.00
472.63	952.00
472.89	942.00
473.15	920.00
473.41	946.00
473.67	950.00
473.93	911.00
474.19	909.00
474.45	931.00
474.71	931.00
474.97	903.00
475.23	912.00
475.49	921.00
475.75	925.00
476.01	918.00
476.27	930.00
476.53	958.00
476.79	964.00
477.05	919.00
477.31	918.00
477.57	955.00
477.83	942.00
478.09	918.00
478.35	938.00
478.61	965.00
478.87	977.00
479.13	918.00
479.39	946.00
479.65	961.00
479.91	963.00
480.17	932.00
480.43	947.00
480.69	925.00
480.95	956.00
481.21	931.00
481.47	933.00
481.73	935.00
481.99	929.00
482.25	883.00
482.51	903.00
482.77	958.00
483.03	947.00
483.29	916.00
483.55	938.00
483.81	964.00
484.07	953.00
484.33	909.00
484.59	910.00
484.85	953.00
485.11	958.00
485.37	929.00
485.63	918.00
485.89	934.00
486.15	927.00
486.41	909.00
486.67	911.00
486.93	957.00
487.19	938.00
487.45	912.00
487.71	913.00
487.97	947.00
488.23	958.00
488.49	905.00
488.75	892.00
489.01	951.00
489.27	989.00
489.53	926.00
489.79	919.00
490.05	956.00
490.31	970.00
490.57	946.00
490.83	962.00
491.08	930.00
491.34	929.00
491.60	902.00
491.86	937.00
492.12	975.00
492.38	975.00
492.64	902.00
492.90	901.00
493.16	963.00
493.42	923.00
493.68	903.00
493.94	925.00
494.20	919.00
494.46	937.00
494.72	916.00
494.98	921.00
495.24	928.00
495.50	935.00
495.76	934.00
496.02	942.00
496.28	952.00
496.54	973.00
496.80	933.00
497.05	901.00
497.31	968.00
497.57	961.00
497.83	927.00
498.09	936.00
498.35	953.00
498.61	947.00
498.87	938.00
499.13	947.00
499.39	950.00
499.65	940.00
499.91	934.00
500.17	907.00
500.43	1019.00
500.69	1032.00
500.95	925.00
501.20	948.00
501.46	969.00
501.72	970.00
501.98	966.00
502.24	955.00
502.50	980.00
502.76	932.00
503.02	922.00
503.28	931.00
503.54	978.00
503.80	989.00
504.06	960.00
504.32	957.00
504.58	949.00
504.83	961.00
505.09	904.00
505.35	938.00
505.61	928.00
505.87	951.00
506.13	929.00
506.39	917.00
506.65	971.00
506.91	975.00
507.17	927.00
507.43	926.00
507.68	937.00
507.94	967.00
508.20	916.00
508.46	897.00
508.72	968.00
508.98	986.00
509.24	918.00
509.50	947.00
509.76	927.00
510.02	949.00
510.28	921.00
510.53	930.00
510.79	958.00
511.05	934.00
511.31	906.00
511.57	930.00
511.83	962.00
512.09	957.00
512.35	905.00
512.61	939.00
512.87	969.00
513.12	957.00
513.38	901.00
513.64	938.00
513.90	962.00
514.16	995.00
514.42	938.00
514.68	940.00
514.94	976.00
515.20	964.00
515.45	923.00
515.71	922.00
515.97	940.00
516.23	953.00
516.49	921.00
516.75	928.00
517.01	953.00
517.27	946.00
517.53	910.00
517.78	933.00
518.04	954.00
518.30	935.00
518.56	908.00
518.82	941.00
519.08	980.00
519.34	937.00
519.60	924.00
519.85	934.00
520.11	935.00
520.37	935.00
520.63	937.00
520.89	956.00
521.15	951.00
521.41	931.00
521.66	916.00
521.92	944.00
522.18	975.00
522.44	985.00
522.70	937.00
522.96	908.00
523.22	952.00
523.48	945.00
523.73	930.00
523.99	921.00
524.25	990.00
524.51	969.00
524.77	902.00
525.03	914.00
525.29	944.00
525.54	951.00
525.80	910.00
526.06	918.00
526.32	926.00
526.58	929.00
526.84	903.00
527.09	904.00
527.35	925.00
527.61	915.00
527.87	909.00
528.13	940.00
528.39	920.00
528.65	915.00
528.90	884.00
529.16	916.00
529.42	906.00
529.68	920.00
529.94	906.00
530.20	911.00
530.45	906.00
530.71	933.00
530.97	897.00
531.23	924.00
531.49	948.00
531.75	951.00
532.00	934.00
532.26	921.00
532.52	963.00
532.78	947.00
533.04	920.00
533.30	919.00
533.55	950.00
533.81	948.00
534.07	882.00
534.33	914.00
534.59	956.00
534.85	942.00
535.10	887.00
535.36	905.00
