SpectraSuite Data File
++++++++++++++++++++++++++++++++++++
Date: Fri Nov 29 15:19:56 CET 2024
User: student
Dark Spectrum Present: No
Reference Spectrum Present: No
Number of Sampled Component Spectra: 1
Spectrometers: HR4C155
Integration Time (usec): 100000 (HR4C155)
Spectra Averaged: 1 (HR4C155)
Boxcar Smoothing: 0 (HR4C155)
Correct for Electrical Dark: No (HR4C155)
Strobe/Lamp Enabled: No (HR4C155)
Correct for Detector Non-linearity: No (HR4C155)
Correct for Stray Light: No (HR4C155)
Number of Pixels in Processed Spectrum: 3648
>>>>>Begin Processed Spectral Data<<<<<
195.39	752.00
195.66	752.00
195.93	752.00
196.20	704.00
196.46	752.00
196.73	873.00
197.00	883.00
197.27	880.00
197.54	918.00
197.81	898.00
198.08	881.00
198.35	935.00
198.61	932.00
198.88	907.00
199.15	889.00
199.42	918.00
199.69	936.00
199.96	913.00
200.23	927.00
200.49	922.00
200.76	939.00
201.03	936.00
201.30	929.00
201.57	964.00
201.84	966.00
202.11	930.00
202.38	941.00
202.64	969.00
202.91	974.00
203.18	903.00
203.45	973.00
203.72	1057.00
203.99	976.00
204.25	964.00
204.52	942.00
204.79	966.00
205.06	981.00
205.33	931.00
205.60	945.00
205.87	994.00
206.13	981.00
206.40	947.00
206.67	930.00
206.94	971.00
207.21	981.00
207.48	947.00
207.75	971.00
208.01	997.00
208.28	997.00
208.55	943.00
208.82	940.00
209.09	945.00
209.36	989.00
209.62	958.00
209.89	968.00
210.16	1001.00
210.43	1029.00
210.70	943.00
210.97	960.00
211.23	987.00
211.50	992.00
211.77	944.00
212.04	964.00
212.31	973.00
212.58	1002.00
212.84	953.00
213.11	957.00
213.38	930.00
213.65	971.00
213.92	953.00
214.18	957.00
214.45	1001.00
214.72	991.00
214.99	937.00
215.26	950.00
215.53	943.00
215.79	977.00
216.06	969.00
216.33	976.00
216.60	938.00
216.87	974.00
217.13	913.00
217.40	916.00
217.67	978.00
217.94	1020.00
218.21	933.00
218.48	981.00
218.74	1022.00
219.01	990.00
219.28	914.00
219.55	916.00
219.82	964.00
220.08	983.00
220.35	937.00
220.62	953.00
220.89	1017.00
221.16	1041.00
221.42	961.00
221.69	952.00
221.96	981.00
222.23	994.00
222.50	998.00
222.76	983.00
223.03	964.00
223.30	957.00
223.57	941.00
223.84	924.00
224.10	948.00
224.37	978.00
224.64	918.00
224.91	940.00
225.18	983.00
225.44	977.00
225.71	969.00
225.98	983.00
226.25	985.00
226.51	988.00
226.78	945.00
227.05	946.00
227.32	973.00
227.59	964.00
227.85	971.00
228.12	971.00
228.39	1001.00
228.66	1000.00
228.92	994.00
229.19	964.00
229.46	981.00
229.73	970.00
230.00	940.00
230.26	978.00
230.53	1006.00
230.80	969.00
231.07	915.00
231.33	931.00
231.60	953.00
231.87	980.00
232.14	941.00
232.41	986.00
232.67	978.00
232.94	984.00
233.21	937.00
233.48	957.00
233.74	968.00
234.01	970.00
234.28	922.00
234.55	938.00
234.81	963.00
235.08	1006.00
235.35	933.00
235.62	934.00
235.88	956.00
236.15	986.00
236.42	955.00
236.69	965.00
236.95	986.00
237.22	957.00
237.49	941.00
237.76	939.00
238.02	995.00
238.29	1006.00
238.56	952.00
238.83	946.00
239.09	952.00
239.36	986.00
239.63	963.00
239.90	958.00
240.16	1000.00
240.43	1030.00
240.70	961.00
240.97	957.00
241.23	960.00
241.50	973.00
241.77	955.00
242.04	956.00
242.30	927.00
242.57	956.00
242.84	938.00
243.11	951.00
243.37	947.00
243.64	1011.00
243.91	958.00
244.18	956.00
244.44	935.00
244.71	958.00
244.98	961.00
245.24	947.00
245.51	983.00
245.78	995.00
246.05	931.00
246.31	953.00
246.58	989.00
246.85	961.00
247.12	956.00
247.38	966.00
247.65	975.00
247.92	988.00
248.18	942.00
248.45	946.00
248.72	953.00
248.99	973.00
249.25	922.00
249.52	945.00
249.79	979.00
250.05	992.00
250.32	964.00
250.59	953.00
250.86	938.00
251.12	956.00
251.39	917.00
251.66	959.00
251.92	1003.00
252.19	1000.00
252.46	933.00
252.73	976.00
252.99	980.00
253.26	1009.00
253.53	928.00
253.79	967.00
254.06	963.00
254.33	947.00
254.60	917.00
254.86	935.00
255.13	980.00
255.40	1009.00
255.66	942.00
255.93	973.00
256.20	1004.00
256.46	1001.00
256.73	939.00
257.00	964.00
257.26	988.00
257.53	995.00
257.80	972.00
258.07	980.00
258.33	1021.00
258.60	999.00
258.87	933.00
259.13	954.00
259.40	949.00
259.67	990.00
259.93	948.00
260.20	980.00
260.47	984.00
260.73	955.00
261.00	945.00
261.27	977.00
261.53	982.00
261.80	979.00
262.07	924.00
262.34	935.00
262.60	927.00
262.87	962.00
263.14	931.00
263.40	966.00
263.67	962.00
263.94	969.00
264.20	956.00
264.47	923.00
264.74	937.00
265.00	951.00
265.27	916.00
265.54	946.00
265.80	975.00
266.07	996.00
266.34	932.00
266.60	937.00
266.87	968.00
267.14	993.00
267.40	946.00
267.67	927.00
267.94	953.00
268.20	952.00
268.47	915.00
268.74	933.00
269.00	957.00
269.27	945.00
269.54	915.00
269.80	937.00
270.07	980.00
270.33	965.00
270.60	949.00
270.87	950.00
271.13	928.00
271.40	948.00
271.67	894.00
271.93	908.00
272.20	962.00
272.47	951.00
272.73	906.00
273.00	942.00
273.27	954.00
273.53	996.00
273.80	933.00
274.07	926.00
274.33	942.00
274.60	970.00
274.86	937.00
275.13	946.00
275.40	951.00
275.66	991.00
275.93	934.00
276.20	922.00
276.46	966.00
276.73	955.00
277.00	936.00
277.26	952.00
277.53	976.00
277.79	966.00
278.06	944.00
278.33	966.00
278.59	970.00
278.86	937.00
279.13	933.00
279.39	937.00
279.66	982.00
279.93	993.00
280.19	927.00
280.46	929.00
280.72	933.00
280.99	961.00
281.26	922.00
281.52	943.00
281.79	959.00
282.05	969.00
282.32	932.00
282.59	942.00
282.85	983.00
283.12	993.00
283.39	935.00
283.65	962.00
283.92	972.00
284.18	987.00
284.45	947.00
284.72	955.00
284.98	946.00
285.25	946.00
285.51	968.00
285.78	960.00
286.05	944.00
286.31	955.00
286.58	904.00
286.84	919.00
287.11	947.00
287.38	987.00
287.64	968.00
287.91	946.00
288.17	965.00
288.44	959.00
288.71	918.00
288.97	961.00
289.24	988.00
289.50	959.00
289.77	963.00
290.04	933.00
290.30	926.00
290.57	967.00
290.83	926.00
291.10	921.00
291.37	955.00
291.63	955.00
291.90	964.00
292.16	958.00
292.43	983.00
292.70	959.00
292.96	907.00
293.23	910.00
293.49	934.00
293.76	986.00
294.02	939.00
294.29	939.00
294.56	956.00
294.82	969.00
295.09	922.00
295.35	932.00
295.62	978.00
295.89	994.00
296.15	919.00
296.42	935.00
296.68	971.00
296.95	945.00
297.21	935.00
297.48	928.00
297.75	952.00
298.01	979.00
298.28	950.00
298.54	955.00
298.81	959.00
299.07	965.00
299.34	907.00
299.61	939.00
299.87	974.00
300.14	964.00
300.40	955.00
300.67	946.00
300.93	986.00
301.20	1006.00
301.46	932.00
301.73	954.00
302.00	967.00
302.26	941.00
302.53	943.00
302.79	948.00
303.06	969.00
303.32	1006.00
303.59	931.00
303.85	934.00
304.12	933.00
304.39	943.00
304.65	926.00
304.92	948.00
305.18	973.00
305.45	985.00
305.71	926.00
305.98	943.00
306.24	939.00
306.51	964.00
306.77	942.00
307.04	949.00
307.31	981.00
307.57	975.00
307.84	905.00
308.10	924.00
308.37	929.00
308.63	938.00
308.90	930.00
309.16	967.00
309.43	976.00
309.69	941.00
309.96	953.00
310.22	953.00
310.49	967.00
310.76	979.00
311.02	916.00
311.29	936.00
311.55	956.00
311.82	964.00
312.08	937.00
312.35	929.00
312.61	969.00
312.88	973.00
313.14	941.00
313.41	918.00
313.67	920.00
313.94	947.00
314.20	951.00
314.47	970.00
314.73	942.00
315.00	952.00
315.26	925.00
315.53	973.00
315.79	968.00
316.06	956.00
316.32	935.00
316.59	952.00
316.85	954.00
317.12	969.00
317.39	917.00
317.65	939.00
317.92	953.00
318.18	971.00
318.45	944.00
318.71	993.00
318.98	976.00
319.24	972.00
319.51	950.00
319.77	945.00
320.04	960.00
320.30	958.00
320.57	928.00
320.83	931.00
321.10	924.00
321.36	929.00
321.63	916.00
321.89	927.00
322.16	982.00
322.42	959.00
322.69	906.00
322.95	926.00
323.22	968.00
323.48	991.00
323.75	944.00
324.01	961.00
324.28	973.00
324.54	962.00
324.80	932.00
325.07	959.00
325.33	996.00
325.60	970.00
325.86	914.00
326.13	929.00
326.39	942.00
326.66	926.00
326.92	885.00
327.19	942.00
327.45	997.00
327.72	989.00
327.98	911.00
328.25	915.00
328.51	971.00
328.78	967.00
329.04	918.00
329.31	946.00
329.57	953.00
329.84	947.00
330.10	925.00
330.37	953.00
330.63	976.00
330.89	987.00
331.16	934.00
331.42	927.00
331.69	975.00
331.95	956.00
332.22	959.00
332.48	979.00
332.75	971.00
333.01	931.00
333.28	918.00
333.54	933.00
333.81	937.00
334.07	967.00
334.34	949.00
334.60	955.00
334.86	1003.00
335.13	998.00
335.39	944.00
335.66	943.00
335.92	963.00
336.19	966.00
336.45	887.00
336.72	917.00
336.98	928.00
337.24	969.00
337.51	927.00
337.77	949.00
338.04	947.00
338.30	941.00
338.57	910.00
338.83	924.00
339.10	959.00
339.36	968.00
339.63	930.00
339.89	903.00
340.15	943.00
340.42	972.00
340.68	955.00
340.95	960.00
341.21	955.00
341.48	957.00
341.74	915.00
342.00	909.00
342.27	946.00
342.53	972.00
342.80	937.00
343.06	928.00
343.33	953.00
343.59	974.00
343.85	921.00
344.12	952.00
344.38	1011.00
344.65	995.00
344.91	933.00
345.18	923.00
345.44	935.00
345.70	942.00
345.97	909.00
346.23	947.00
346.50	974.00
346.76	957.00
347.03	959.00
347.29	945.00
347.55	954.00
347.82	948.00
348.08	905.00
348.35	921.00
348.61	989.00
348.87	979.00
349.14	917.00
349.40	920.00
349.67	961.00
349.93	945.00
350.20	926.00
350.46	947.00
350.72	984.00
350.99	947.00
351.25	933.00
351.52	932.00
351.78	972.00
352.04	976.00
352.31	966.00
352.57	953.00
352.84	949.00
353.10	946.00
353.36	933.00
353.63	923.00
353.89	934.00
354.16	948.00
354.42	937.00
354.68	940.00
354.95	982.00
355.21	986.00
355.48	910.00
355.74	959.00
356.00	992.00
356.27	999.00
356.53	928.00
356.80	934.00
357.06	963.00
357.32	973.00
357.59	958.00
357.85	961.00
358.11	987.00
358.38	977.00
358.64	960.00
358.91	936.00
359.17	950.00
359.43	969.00
359.70	951.00
359.96	943.00
360.22	971.00
360.49	944.00
360.75	932.00
361.02	915.00
361.28	934.00
361.54	961.00
361.81	907.00
362.07	931.00
362.33	956.00
362.60	941.00
362.86	925.00
363.13	934.00
363.39	964.00
363.65	972.00
363.92	902.00
364.18	898.00
364.44	955.00
364.71	968.00
364.97	929.00
365.24	933.00
365.50	965.00
365.76	976.00
366.03	942.00
366.29	956.00
366.55	977.00
366.82	944.00
367.08	901.00
367.34	936.00
367.61	987.00
367.87	968.00
368.13	946.00
368.40	940.00
368.66	1006.00
368.93	974.00
369.19	905.00
369.45	920.00
369.72	944.00
369.98	948.00
370.24	904.00
370.51	924.00
370.77	946.00
371.03	956.00
371.30	947.00
371.56	964.00
371.82	957.00
372.09	964.00
372.35	944.00
372.61	950.00
372.88	957.00
373.14	970.00
373.40	938.00
373.67	936.00
373.93	959.00
374.19	989.00
374.46	928.00
374.72	915.00
374.98	948.00
375.25	962.00
375.51	946.00
375.77	961.00
376.04	962.00
376.30	955.00
376.56	917.00
376.83	930.00
377.09	970.00
377.35	970.00
377.62	947.00
377.88	942.00
378.14	953.00
378.41	957.00
378.67	925.00
378.93	937.00
379.20	985.00
379.46	940.00
379.72	911.00
379.99	931.00
380.25	918.00
380.51	921.00
380.77	926.00
381.04	946.00
381.30	979.00
381.56	995.00
381.83	942.00
382.09	935.00
382.35	940.00
382.62	984.00
382.88	946.00
383.14	931.00
383.41	936.00
383.67	929.00
383.93	936.00
384.20	940.00
384.46	966.00
384.72	978.00
384.98	914.00
385.25	976.00
385.51	972.00
385.77	951.00
386.04	922.00
386.30	915.00
386.56	959.00
386.82	996.00
387.09	943.00
387.35	983.00
387.61	1034.00
387.88	981.00
388.14	940.00
388.40	945.00
388.67	948.00
388.93	957.00
389.19	945.00
389.45	933.00
389.72	958.00
389.98	969.00
390.24	937.00
390.51	929.00
390.77	977.00
391.03	987.00
391.29	918.00
391.56	936.00
391.82	977.00
392.08	993.00
392.35	943.00
392.61	934.00
392.87	955.00
393.13	978.00
393.40	940.00
393.66	940.00
393.92	961.00
394.18	968.00
394.45	920.00
394.71	927.00
394.97	946.00
395.24	916.00
395.50	913.00
395.76	951.00
396.02	975.00
396.29	959.00
396.55	911.00
396.81	880.00
397.07	927.00
397.34	930.00
397.60	907.00
397.86	914.00
398.12	948.00
398.39	979.00
398.65	920.00
398.91	915.00
399.17	941.00
399.44	901.00
399.70	886.00
399.96	913.00
400.22	942.00
400.49	993.00
400.75	941.00
401.01	924.00
401.27	941.00
401.54	976.00
401.80	930.00
402.06	915.00
402.32	965.00
402.59	952.00
402.85	929.00
403.11	949.00
403.37	931.00
403.64	977.00
403.90	924.00
404.16	927.00
404.42	937.00
404.69	933.00
404.95	903.00
405.21	889.00
405.47	939.00
405.74	969.00
406.00	916.00
406.26	910.00
406.52	947.00
406.79	974.00
407.05	926.00
407.31	930.00
407.57	930.00
407.83	950.00
408.10	906.00
408.36	903.00
408.62	944.00
408.88	939.00
409.15	921.00
409.41	873.00
409.67	908.00
409.93	982.00
410.20	947.00
410.46	922.00
410.72	936.00
410.98	948.00
411.24	922.00
411.51	937.00
411.77	936.00
412.03	944.00
412.29	955.00
412.55	963.00
412.82	949.00
413.08	969.00
413.34	958.00
413.60	930.00
413.87	954.00
414.13	959.00
414.39	928.00
414.65	955.00
414.91	949.00
415.18	920.00
415.44	890.00
415.70	914.00
415.96	947.00
416.22	951.00
416.49	912.00
416.75	914.00
417.01	950.00
417.27	944.00
417.53	919.00
417.80	953.00
418.06	985.00
418.32	978.00
418.58	921.00
418.84	915.00
419.11	940.00
419.37	943.00
419.63	912.00
419.89	910.00
420.15	940.00
420.42	936.00
420.68	911.00
420.94	920.00
421.20	942.00
421.46	925.00
421.72	952.00
421.99	947.00
422.25	958.00
422.51	942.00
422.77	923.00
423.03	961.00
423.30	954.00
423.56	963.00
423.82	950.00
424.08	936.00
424.34	946.00
424.60	952.00
424.87	924.00
425.13	920.00
425.39	932.00
425.65	949.00
425.91	921.00
426.18	945.00
426.44	944.00
426.70	921.00
426.96	886.00
427.22	886.00
427.48	930.00
427.75	944.00
428.01	891.00
428.27	914.00
428.53	962.00
428.79	932.00
429.05	919.00
429.32	935.00
429.58	977.00
429.84	924.00
430.10	914.00
430.36	938.00
430.62	977.00
430.88	966.00
431.15	939.00
431.41	947.00
431.67	960.00
431.93	934.00
432.19	890.00
432.45	910.00
432.72	941.00
432.98	955.00
433.24	949.00
433.50	1015.00
433.76	933.00
434.02	934.00
434.28	915.00
434.55	918.00
434.81	951.00
435.07	956.00
435.33	894.00
435.59	913.00
435.85	936.00
436.11	945.00
436.38	895.00
436.64	931.00
436.90	951.00
437.16	933.00
437.42	917.00
437.68	929.00
437.94	949.00
438.21	955.00
438.47	963.00
438.73	950.00
438.99	953.00
439.25	956.00
439.51	919.00
439.77	938.00
440.03	930.00
440.30	955.00
440.56	923.00
440.82	953.00
441.08	960.00
441.34	956.00
441.60	911.00
441.86	929.00
442.12	959.00
442.39	947.00
442.65	917.00
442.91	920.00
443.17	926.00
443.43	946.00
443.69	939.00
443.95	913.00
444.21	926.00
444.47	955.00
444.74	917.00
445.00	942.00
445.26	940.00
445.52	942.00
445.78	900.00
446.04	927.00
446.30	974.00
446.56	958.00
446.82	917.00
447.09	930.00
447.35	982.00
447.61	948.00
447.87	927.00
448.13	930.00
448.39	990.00
448.65	968.00
448.91	919.00
449.17	918.00
449.43	936.00
449.70	948.00
449.96	934.00
450.22	924.00
450.48	950.00
450.74	987.00
451.00	926.00
451.26	910.00
451.52	947.00
451.78	948.00
452.04	906.00
452.31	945.00
452.57	957.00
452.83	938.00
453.09	910.00
453.35	921.00
453.61	934.00
453.87	934.00
454.13	955.00
454.39	956.00
454.65	991.00
454.91	986.00
455.17	929.00
455.44	937.00
455.70	967.00
455.96	962.00
456.22	913.00
456.48	933.00
456.74	941.00
457.00	917.00
457.26	882.00
457.52	915.00
457.78	927.00
458.04	937.00
458.30	908.00
458.56	917.00
458.82	929.00
459.09	916.00
459.35	873.00
459.61	897.00
459.87	951.00
460.13	973.00
460.39	933.00
460.65	901.00
460.91	957.00
461.17	926.00
461.43	901.00
461.69	925.00
461.95	946.00
462.21	941.00
462.47	940.00
462.73	954.00
462.99	975.00
463.26	968.00
463.52	900.00
463.78	891.00
464.04	927.00
464.30	939.00
464.56	908.00
464.82	938.00
465.08	985.00
465.34	990.00
465.60	942.00
465.86	920.00
466.12	932.00
466.38	914.00
466.64	910.00
466.90	911.00
467.16	953.00
467.42	968.00
467.68	908.00
467.94	938.00
468.20	980.00
468.46	951.00
468.72	908.00
468.98	930.00
469.25	948.00
469.51	917.00
469.77	924.00
470.03	932.00
470.29	936.00
470.55	944.00
470.81	925.00
471.07	926.00
471.33	941.00
471.59	956.00
471.85	934.00
472.11	934.00
472.37	955.00
472.63	950.00
472.89	939.00
473.15	929.00
473.41	943.00
473.67	944.00
473.93	901.00
474.19	897.00
474.45	916.00
474.71	930.00
474.97	894.00
475.23	903.00
475.49	929.00
475.75	932.00
476.01	924.00
476.27	964.00
476.53	982.00
476.79	966.00
477.05	940.00
477.31	923.00
477.57	953.00
477.83	936.00
478.09	884.00
478.35	926.00
478.61	968.00
478.87	931.00
479.13	909.00
479.39	969.00
479.65	984.00
479.91	966.00
480.17	942.00
480.43	966.00
480.69	945.00
480.95	964.00
481.21	927.00
481.47	939.00
481.73	934.00
481.99	925.00
482.25	914.00
482.51	902.00
482.77	957.00
483.03	950.00
483.29	930.00
483.55	928.00
483.81	961.00
484.07	966.00
484.33	921.00
484.59	912.00
484.85	964.00
485.11	968.00
485.37	909.00
485.63	931.00
485.89	944.00
486.15	933.00
486.41	896.00
486.67	907.00
486.93	938.00
487.19	940.00
487.45	910.00
487.71	925.00
487.97	972.00
488.23	955.00
488.49	900.00
488.75	913.00
489.01	954.00
489.27	976.00
489.53	916.00
489.79	916.00
490.05	940.00
490.31	969.00
490.57	944.00
490.83	982.00
491.08	945.00
491.34	925.00
491.60	900.00
491.86	934.00
492.12	963.00
492.38	963.00
492.64	909.00
492.90	911.00
493.16	953.00
493.42	933.00
493.68	901.00
493.94	922.00
494.20	926.00
494.46	948.00
494.72	904.00
494.98	905.00
495.24	927.00
495.50	949.00
495.76	929.00
496.02	939.00
496.28	941.00
496.54	963.00
496.80	933.00
497.05	904.00
497.31	946.00
497.57	948.00
497.83	920.00
498.09	945.00
498.35	980.00
498.61	964.00
498.87	934.00
499.13	935.00
499.39	951.00
499.65	932.00
499.91	919.00
500.17	901.00
500.43	997.00
500.69	1026.00
500.95	922.00
501.20	959.00
501.46	962.00
501.72	987.00
501.98	967.00
502.24	956.00
502.50	964.00
502.76	928.00
503.02	930.00
503.28	933.00
503.54	982.00
503.80	972.00
504.06	932.00
504.32	969.00
504.58	959.00
504.83	951.00
505.09	902.00
505.35	945.00
505.61	945.00
505.87	947.00
506.13	933.00
506.39	922.00
506.65	957.00
506.91	984.00
507.17	917.00
507.43	902.00
507.68	940.00
507.94	971.00
508.20	906.00
508.46	913.00
508.72	965.00
508.98	969.00
509.24	910.00
509.50	940.00
509.76	940.00
510.02	935.00
510.28	919.00
510.53	942.00
510.79	966.00
511.05	962.00
511.31	921.00
511.57	931.00
511.83	943.00
512.09	970.00
512.35	918.00
512.61	943.00
512.87	951.00
513.12	968.00
513.38	917.00
513.64	941.00
513.90	968.00
514.16	991.00
514.42	941.00
514.68	937.00
514.94	956.00
515.20	945.00
515.45	916.00
515.71	934.00
515.97	943.00
516.23	942.00
516.49	927.00
516.75	928.00
517.01	954.00
517.27	931.00
517.53	918.00
517.78	930.00
518.04	940.00
518.30	919.00
518.56	909.00
518.82	951.00
519.08	986.00
519.34	928.00
519.60	929.00
519.85	924.00
520.11	953.00
520.37	958.00
520.63	936.00
520.89	952.00
521.15	952.00
521.41	938.00
521.66	912.00
521.92	917.00
522.18	949.00
522.44	962.00
522.70	940.00
522.96	914.00
523.22	941.00
523.48	937.00
523.73	913.00
523.99	933.00
524.25	988.00
524.51	977.00
524.77	919.00
525.03	919.00
525.29	945.00
525.54	966.00
525.80	927.00
526.06	914.00
526.32	934.00
526.58	934.00
526.84	904.00
527.09	901.00
527.35	927.00
527.61	943.00
527.87	900.00
528.13	935.00
528.39	933.00
528.65	950.00
528.90	899.00
529.16	906.00
529.42	915.00
529.68	907.00
529.94	894.00
530.20	917.00
530.45	919.00
530.71	933.00
530.97	899.00
531.23	933.00
531.49	956.00
531.75	930.00
532.00	916.00
532.26	905.00
532.52	946.00
532.78	934.00
533.04	914.00
533.30	920.00
533.55	926.00
533.81	932.00
534.07	908.00
534.33	911.00
534.59	951.00
534.85	954.00
535.10	917.00
535.36	902.00
