SpectraSuite Data File
++++++++++++++++++++++++++++++++++++
Date: Fri Nov 29 15:22:53 CET 2024
User: student
Dark Spectrum Present: No
Reference Spectrum Present: No
Number of Sampled Component Spectra: 1
Spectrometers: HR4C155
Integration Time (usec): 100000 (HR4C155)
Spectra Averaged: 1 (HR4C155)
Boxcar Smoothing: 0 (HR4C155)
Correct for Electrical Dark: No (HR4C155)
Strobe/Lamp Enabled: No (HR4C155)
Correct for Detector Non-linearity: No (HR4C155)
Correct for Stray Light: No (HR4C155)
Number of Pixels in Processed Spectrum: 3648
>>>>>Begin Processed Spectral Data<<<<<
195.39	755.00
195.66	755.00
195.93	755.00
196.20	709.00
196.46	747.00
196.73	871.00
197.00	892.00
197.27	887.00
197.54	913.00
197.81	898.00
198.08	892.00
198.35	935.00
198.61	947.00
198.88	926.00
199.15	900.00
199.42	930.00
199.69	945.00
199.96	927.00
200.23	934.00
200.49	925.00
200.76	942.00
201.03	930.00
201.30	914.00
201.57	984.00
201.84	994.00
202.11	941.00
202.38	960.00
202.64	960.00
202.91	966.00
203.18	921.00
203.45	990.00
203.72	1057.00
203.99	997.00
204.25	969.00
204.52	965.00
204.79	977.00
205.06	974.00
205.33	939.00
205.60	937.00
205.87	985.00
206.13	972.00
206.40	937.00
206.67	941.00
206.94	978.00
207.21	979.00
207.48	955.00
207.75	932.00
208.01	990.00
208.28	982.00
208.55	924.00
208.82	954.00
209.09	958.00
209.36	985.00
209.62	961.00
209.89	979.00
210.16	982.00
210.43	1016.00
210.70	947.00
210.97	976.00
211.23	1002.00
211.50	1000.00
211.77	952.00
212.04	967.00
212.31	964.00
212.58	981.00
212.84	943.00
213.11	948.00
213.38	917.00
213.65	960.00
213.92	945.00
214.18	945.00
214.45	993.00
214.72	983.00
214.99	934.00
215.26	954.00
215.53	948.00
215.79	984.00
216.06	976.00
216.33	984.00
216.60	949.00
216.87	994.00
217.13	922.00
217.40	954.00
217.67	990.00
217.94	1009.00
218.21	945.00
218.48	963.00
218.74	1033.00
219.01	984.00
219.28	911.00
219.55	923.00
219.82	974.00
220.08	973.00
220.35	926.00
220.62	937.00
220.89	978.00
221.16	998.00
221.42	976.00
221.69	983.00
221.96	981.00
222.23	995.00
222.50	976.00
222.76	975.00
223.03	967.00
223.30	943.00
223.57	934.00
223.84	928.00
224.10	925.00
224.37	971.00
224.64	921.00
224.91	944.00
225.18	984.00
225.44	985.00
225.71	937.00
225.98	967.00
226.25	1001.00
226.51	1016.00
226.78	952.00
227.05	953.00
227.32	960.00
227.59	958.00
227.85	950.00
228.12	960.00
228.39	1002.00
228.66	1001.00
228.92	1000.00
229.19	963.00
229.46	975.00
229.73	966.00
230.00	937.00
230.26	963.00
230.53	992.00
230.80	980.00
231.07	921.00
231.33	931.00
231.60	971.00
231.87	983.00
232.14	948.00
232.41	987.00
232.67	971.00
232.94	985.00
233.21	928.00
233.48	964.00
233.74	966.00
234.01	966.00
234.28	940.00
234.55	952.00
234.81	945.00
235.08	1013.00
235.35	961.00
235.62	940.00
235.88	950.00
236.15	984.00
236.42	965.00
236.69	962.00
236.95	988.00
237.22	973.00
237.49	942.00
237.76	948.00
238.02	995.00
238.29	1026.00
238.56	932.00
238.83	938.00
239.09	956.00
239.36	969.00
239.63	927.00
239.90	949.00
240.16	1001.00
240.43	1041.00
240.70	955.00
240.97	950.00
241.23	954.00
241.50	956.00
241.77	947.00
242.04	938.00
242.30	920.00
242.57	945.00
242.84	915.00
243.11	926.00
243.37	904.00
243.64	988.00
243.91	947.00
244.18	950.00
244.44	936.00
244.71	935.00
244.98	943.00
245.24	937.00
245.51	963.00
245.78	974.00
246.05	918.00
246.31	927.00
246.58	967.00
246.85	964.00
247.12	961.00
247.38	985.00
247.65	978.00
247.92	994.00
248.18	945.00
248.45	960.00
248.72	956.00
248.99	976.00
249.25	920.00
249.52	923.00
249.79	981.00
250.05	976.00
250.32	934.00
250.59	941.00
250.86	942.00
251.12	952.00
251.39	910.00
251.66	943.00
251.92	995.00
252.19	1009.00
252.46	929.00
252.73	971.00
252.99	982.00
253.26	1003.00
253.53	926.00
253.79	945.00
254.06	962.00
254.33	944.00
254.60	924.00
254.86	934.00
255.13	981.00
255.40	1001.00
255.66	942.00
255.93	975.00
256.20	992.00
256.46	991.00
256.73	944.00
257.00	962.00
257.26	979.00
257.53	1000.00
257.80	964.00
258.07	976.00
258.33	1022.00
258.60	998.00
258.87	939.00
259.13	954.00
259.40	942.00
259.67	976.00
259.93	928.00
260.20	982.00
260.47	989.00
260.73	970.00
261.00	964.00
261.27	974.00
261.53	974.00
261.80	968.00
262.07	912.00
262.34	942.00
262.60	934.00
262.87	952.00
263.14	923.00
263.40	952.00
263.67	938.00
263.94	964.00
264.20	939.00
264.47	915.00
264.74	936.00
265.00	948.00
265.27	923.00
265.54	945.00
265.80	976.00
266.07	992.00
266.34	928.00
266.60	923.00
266.87	956.00
267.14	979.00
267.40	937.00
267.67	916.00
267.94	954.00
268.20	952.00
268.47	924.00
268.74	939.00
269.00	953.00
269.27	928.00
269.54	886.00
269.80	913.00
270.07	969.00
270.33	943.00
270.60	940.00
270.87	952.00
271.13	950.00
271.40	970.00
271.67	908.00
271.93	909.00
272.20	968.00
272.47	940.00
272.73	899.00
273.00	945.00
273.27	972.00
273.53	988.00
273.80	935.00
274.07	936.00
274.33	942.00
274.60	964.00
274.86	924.00
275.13	933.00
275.40	933.00
275.66	1004.00
275.93	933.00
276.20	921.00
276.46	942.00
276.73	941.00
277.00	948.00
277.26	970.00
277.53	1000.00
277.79	980.00
278.06	941.00
278.33	979.00
278.59	964.00
278.86	956.00
279.13	945.00
279.39	954.00
279.66	975.00
279.93	994.00
280.19	937.00
280.46	927.00
280.72	936.00
280.99	958.00
281.26	939.00
281.52	927.00
281.79	934.00
282.05	969.00
282.32	935.00
282.59	932.00
282.85	987.00
283.12	971.00
283.39	923.00
283.65	965.00
283.92	957.00
284.18	974.00
284.45	948.00
284.72	956.00
284.98	943.00
285.25	935.00
285.51	956.00
285.78	952.00
286.05	960.00
286.31	952.00
286.58	905.00
286.84	923.00
287.11	938.00
287.38	956.00
287.64	957.00
287.91	925.00
288.17	964.00
288.44	976.00
288.71	923.00
288.97	941.00
289.24	972.00
289.50	945.00
289.77	947.00
290.04	910.00
290.30	937.00
290.57	984.00
290.83	922.00
291.10	937.00
291.37	976.00
291.63	945.00
291.90	968.00
292.16	969.00
292.43	979.00
292.70	951.00
292.96	906.00
293.23	921.00
293.49	944.00
293.76	978.00
294.02	930.00
294.29	925.00
294.56	954.00
294.82	973.00
295.09	935.00
295.35	922.00
295.62	976.00
295.89	985.00
296.15	920.00
296.42	921.00
296.68	948.00
296.95	953.00
297.21	952.00
297.48	937.00
297.75	946.00
298.01	999.00
298.28	933.00
298.54	951.00
298.81	958.00
299.07	971.00
299.34	922.00
299.61	926.00
299.87	957.00
300.14	943.00
300.40	945.00
300.67	941.00
300.93	977.00
301.20	1009.00
301.46	933.00
301.73	946.00
302.00	973.00
302.26	953.00
302.53	935.00
302.79	936.00
303.06	968.00
303.32	1005.00
303.59	933.00
303.85	931.00
304.12	948.00
304.39	978.00
304.65	941.00
304.92	922.00
305.18	952.00
305.45	970.00
305.71	936.00
305.98	952.00
306.24	956.00
306.51	953.00
306.77	931.00
307.04	934.00
307.31	978.00
307.57	992.00
307.84	923.00
308.10	942.00
308.37	939.00
308.63	956.00
308.90	923.00
309.16	946.00
309.43	983.00
309.69	966.00
309.96	950.00
310.22	942.00
310.49	955.00
310.76	968.00
311.02	932.00
311.29	935.00
311.55	948.00
311.82	978.00
312.08	942.00
312.35	955.00
312.61	980.00
312.88	996.00
313.14	937.00
313.41	905.00
313.67	936.00
313.94	967.00
314.20	953.00
314.47	981.00
314.73	957.00
315.00	931.00
315.26	922.00
315.53	948.00
315.79	965.00
316.06	940.00
316.32	927.00
316.59	953.00
316.85	962.00
317.12	990.00
317.39	943.00
317.65	946.00
317.92	950.00
318.18	972.00
318.45	941.00
318.71	990.00
318.98	977.00
319.24	979.00
319.51	944.00
319.77	936.00
320.04	941.00
320.30	958.00
320.57	944.00
320.83	932.00
321.10	934.00
321.36	945.00
321.63	919.00
321.89	930.00
322.16	990.00
322.42	967.00
322.69	914.00
322.95	925.00
323.22	956.00
323.48	982.00
323.75	915.00
324.01	922.00
324.28	957.00
324.54	966.00
324.80	925.00
325.07	951.00
325.33	964.00
325.60	950.00
325.86	898.00
326.13	931.00
326.39	943.00
326.66	951.00
326.92	899.00
327.19	919.00
327.45	990.00
327.72	992.00
327.98	930.00
328.25	932.00
328.51	950.00
328.78	954.00
329.04	923.00
329.31	951.00
329.57	977.00
329.84	965.00
330.10	928.00
330.37	935.00
330.63	994.00
330.89	997.00
331.16	925.00
331.42	925.00
331.69	983.00
331.95	950.00
332.22	946.00
332.48	973.00
332.75	965.00
333.01	938.00
333.28	935.00
333.54	936.00
333.81	967.00
334.07	974.00
334.34	940.00
334.60	951.00
334.86	1004.00
335.13	999.00
335.39	953.00
335.66	930.00
335.92	968.00
336.19	965.00
336.45	880.00
336.72	914.00
336.98	922.00
337.24	965.00
337.51	909.00
337.77	930.00
338.04	938.00
338.30	949.00
338.57	916.00
338.83	944.00
339.10	972.00
339.36	973.00
339.63	937.00
339.89	908.00
340.15	937.00
340.42	971.00
340.68	957.00
340.95	948.00
341.21	956.00
341.48	951.00
341.74	902.00
342.00	910.00
342.27	945.00
342.53	953.00
342.80	921.00
343.06	916.00
343.33	965.00
343.59	985.00
343.85	935.00
344.12	945.00
344.38	1005.00
344.65	975.00
344.91	937.00
345.18	929.00
345.44	942.00
345.70	937.00
345.97	883.00
346.23	930.00
346.50	964.00
346.76	972.00
347.03	944.00
347.29	939.00
347.55	938.00
347.82	947.00
348.08	909.00
348.35	916.00
348.61	999.00
348.87	971.00
349.14	909.00
349.40	908.00
349.67	966.00
349.93	953.00
350.20	931.00
350.46	948.00
350.72	986.00
350.99	959.00
351.25	945.00
351.52	938.00
351.78	935.00
352.04	958.00
352.31	945.00
352.57	948.00
352.84	955.00
353.10	967.00
353.36	936.00
353.63	928.00
353.89	948.00
354.16	970.00
354.42	930.00
354.68	933.00
354.95	989.00
355.21	992.00
355.48	923.00
355.74	940.00
356.00	982.00
356.27	981.00
356.53	932.00
356.80	916.00
357.06	946.00
357.32	965.00
357.59	964.00
357.85	977.00
358.11	1015.00
358.38	977.00
358.64	938.00
358.91	944.00
359.17	962.00
359.43	988.00
359.70	956.00
359.96	943.00
360.22	974.00
360.49	941.00
360.75	932.00
361.02	932.00
361.28	944.00
361.54	956.00
361.81	916.00
362.07	950.00
362.33	937.00
362.60	935.00
362.86	907.00
363.13	950.00
363.39	983.00
363.65	978.00
363.92	902.00
364.18	895.00
364.44	934.00
364.71	964.00
364.97	934.00
365.24	934.00
365.50	967.00
365.76	973.00
366.03	936.00
366.29	954.00
366.55	968.00
366.82	946.00
367.08	901.00
367.34	931.00
367.61	963.00
367.87	975.00
368.13	950.00
368.40	945.00
368.66	1015.00
368.93	978.00
369.19	893.00
369.45	918.00
369.72	948.00
369.98	932.00
370.24	903.00
370.51	941.00
370.77	962.00
371.03	964.00
371.30	934.00
371.56	963.00
371.82	982.00
372.09	969.00
372.35	960.00
372.61	938.00
372.88	928.00
373.14	952.00
373.40	937.00
373.67	917.00
373.93	951.00
374.19	980.00
374.46	917.00
374.72	910.00
374.98	954.00
375.25	962.00
375.51	946.00
375.77	950.00
376.04	956.00
376.30	979.00
376.56	918.00
376.83	934.00
377.09	960.00
377.35	971.00
377.62	948.00
377.88	940.00
378.14	953.00
378.41	976.00
378.67	933.00
378.93	927.00
379.20	972.00
379.46	950.00
379.72	917.00
379.99	927.00
380.25	935.00
380.51	919.00
380.77	921.00
381.04	946.00
381.30	983.00
381.56	990.00
381.83	949.00
382.09	932.00
382.35	946.00
382.62	965.00
382.88	960.00
383.14	952.00
383.41	957.00
383.67	944.00
383.93	947.00
384.20	943.00
384.46	958.00
384.72	974.00
384.98	903.00
385.25	948.00
385.51	981.00
385.77	952.00
386.04	928.00
386.30	922.00
386.56	971.00
386.82	1003.00
387.09	930.00
387.35	959.00
387.61	1043.00
387.88	991.00
388.14	956.00
388.40	957.00
388.67	954.00
388.93	953.00
389.19	929.00
389.45	934.00
389.72	962.00
389.98	965.00
390.24	936.00
390.51	936.00
390.77	981.00
391.03	981.00
391.29	920.00
391.56	918.00
391.82	966.00
392.08	994.00
392.35	933.00
392.61	931.00
392.87	976.00
393.13	970.00
393.40	912.00
393.66	919.00
393.92	951.00
394.18	954.00
394.45	918.00
394.71	932.00
394.97	948.00
395.24	945.00
395.50	904.00
395.76	949.00
396.02	975.00
396.29	946.00
396.55	889.00
396.81	890.00
397.07	939.00
397.34	923.00
397.60	903.00
397.86	906.00
398.12	918.00
398.39	977.00
398.65	912.00
398.91	932.00
399.17	949.00
399.44	915.00
399.70	857.00
399.96	916.00
400.22	926.00
400.49	976.00
400.75	950.00
401.01	927.00
401.27	940.00
401.54	968.00
401.80	938.00
402.06	913.00
402.32	973.00
402.59	966.00
402.85	925.00
403.11	932.00
403.37	945.00
403.64	974.00
403.90	931.00
404.16	930.00
404.42	938.00
404.69	923.00
404.95	919.00
405.21	900.00
405.47	937.00
405.74	958.00
406.00	931.00
406.26	917.00
406.52	940.00
406.79	977.00
407.05	924.00
407.31	920.00
407.57	926.00
407.83	940.00
408.10	900.00
408.36	905.00
408.62	943.00
408.88	935.00
409.15	919.00
409.41	886.00
409.67	921.00
409.93	966.00
410.20	942.00
410.46	934.00
410.72	937.00
410.98	944.00
411.24	930.00
411.51	935.00
411.77	941.00
412.03	957.00
412.29	956.00
412.55	966.00
412.82	962.00
413.08	968.00
413.34	945.00
413.60	932.00
413.87	948.00
414.13	966.00
414.39	911.00
414.65	933.00
414.91	960.00
415.18	942.00
415.44	920.00
415.70	930.00
415.96	946.00
416.22	957.00
416.49	921.00
416.75	918.00
417.01	942.00
417.27	946.00
417.53	950.00
417.80	959.00
418.06	981.00
418.32	981.00
418.58	916.00
418.84	913.00
419.11	961.00
419.37	964.00
419.63	908.00
419.89	917.00
420.15	931.00
420.42	932.00
420.68	916.00
420.94	931.00
421.20	948.00
421.46	962.00
421.72	950.00
421.99	930.00
422.25	949.00
422.51	948.00
422.77	939.00
423.03	940.00
423.30	942.00
423.56	973.00
423.82	957.00
424.08	955.00
424.34	971.00
424.60	976.00
424.87	932.00
425.13	926.00
425.39	926.00
425.65	941.00
425.91	916.00
426.18	942.00
426.44	948.00
426.70	924.00
426.96	893.00
427.22	903.00
427.48	943.00
427.75	936.00
428.01	894.00
428.27	922.00
428.53	960.00
428.79	924.00
429.05	914.00
429.32	924.00
429.58	987.00
429.84	945.00
430.10	945.00
430.36	941.00
430.62	977.00
430.88	961.00
431.15	931.00
431.41	948.00
431.67	965.00
431.93	946.00
432.19	912.00
432.45	940.00
432.72	948.00
432.98	948.00
433.24	971.00
433.50	1029.00
433.76	945.00
434.02	929.00
434.28	904.00
434.55	930.00
434.81	950.00
435.07	965.00
435.33	900.00
435.59	914.00
435.85	933.00
436.11	954.00
436.38	913.00
436.64	917.00
436.90	949.00
437.16	945.00
437.42	935.00
437.68	939.00
437.94	964.00
438.21	959.00
438.47	954.00
438.73	935.00
438.99	914.00
439.25	941.00
439.51	924.00
439.77	934.00
440.03	949.00
440.30	964.00
440.56	927.00
440.82	958.00
441.08	972.00
441.34	959.00
441.60	909.00
441.86	940.00
442.12	958.00
442.39	952.00
442.65	921.00
442.91	920.00
443.17	924.00
443.43	954.00
443.69	948.00
443.95	933.00
444.21	956.00
444.47	971.00
444.74	910.00
445.00	928.00
445.26	954.00
445.52	946.00
445.78	910.00
446.04	915.00
446.30	989.00
446.56	978.00
446.82	922.00
447.09	934.00
447.35	969.00
447.61	954.00
447.87	914.00
448.13	929.00
448.39	1000.00
448.65	973.00
448.91	922.00
449.17	926.00
449.43	932.00
449.70	946.00
449.96	910.00
450.22	914.00
450.48	959.00
450.74	986.00
451.00	930.00
451.26	922.00
451.52	946.00
451.78	936.00
452.04	925.00
452.31	959.00
452.57	956.00
452.83	932.00
453.09	925.00
453.35	928.00
453.61	945.00
453.87	952.00
454.13	955.00
454.39	957.00
454.65	1004.00
454.91	992.00
455.17	917.00
455.44	926.00
455.70	951.00
455.96	946.00
456.22	904.00
456.48	908.00
456.74	945.00
457.00	905.00
457.26	875.00
457.52	921.00
457.78	922.00
458.04	926.00
458.30	893.00
458.56	929.00
458.82	947.00
459.09	919.00
459.35	871.00
459.61	896.00
459.87	948.00
460.13	982.00
460.39	940.00
460.65	910.00
460.91	958.00
461.17	932.00
461.43	886.00
461.69	898.00
461.95	950.00
462.21	923.00
462.47	936.00
462.73	961.00
462.99	973.00
463.26	957.00
463.52	916.00
463.78	909.00
464.04	929.00
464.30	945.00
464.56	913.00
464.82	928.00
465.08	982.00
465.34	981.00
465.60	924.00
465.86	933.00
466.12	943.00
466.38	928.00
466.64	917.00
466.90	924.00
467.16	956.00
467.42	971.00
467.68	906.00
467.94	928.00
468.20	965.00
468.46	949.00
468.72	909.00
468.98	925.00
469.25	942.00
469.51	919.00
469.77	939.00
470.03	927.00
470.29	932.00
470.55	951.00
470.81	934.00
471.07	943.00
471.33	946.00
471.59	959.00
471.85	918.00
472.11	939.00
472.37	957.00
472.63	951.00
472.89	940.00
473.15	936.00
473.41	953.00
473.67	930.00
473.93	883.00
474.19	894.00
474.45	924.00
474.71	942.00
474.97	915.00
475.23	913.00
475.49	961.00
475.75	934.00
476.01	924.00
476.27	949.00
476.53	994.00
476.79	961.00
477.05	925.00
477.31	915.00
477.57	947.00
477.83	958.00
478.09	902.00
478.35	926.00
478.61	972.00
478.87	944.00
479.13	901.00
479.39	965.00
479.65	967.00
479.91	977.00
480.17	945.00
480.43	961.00
480.69	936.00
480.95	948.00
481.21	915.00
481.47	944.00
481.73	930.00
481.99	931.00
482.25	916.00
482.51	901.00
482.77	954.00
483.03	954.00
483.29	922.00
483.55	929.00
483.81	971.00
484.07	946.00
484.33	900.00
484.59	914.00
484.85	954.00
485.11	951.00
485.37	920.00
485.63	935.00
485.89	925.00
486.15	939.00
486.41	915.00
486.67	929.00
486.93	955.00
487.19	933.00
487.45	921.00
487.71	927.00
487.97	960.00
488.23	970.00
488.49	920.00
488.75	909.00
489.01	958.00
489.27	979.00
489.53	931.00
489.79	916.00
490.05	945.00
490.31	963.00
490.57	946.00
490.83	970.00
491.08	940.00
491.34	930.00
491.60	902.00
491.86	939.00
492.12	983.00
492.38	966.00
492.64	913.00
492.90	925.00
493.16	964.00
493.42	924.00
493.68	889.00
493.94	941.00
494.20	905.00
494.46	938.00
494.72	924.00
494.98	918.00
495.24	920.00
495.50	933.00
495.76	952.00
496.02	945.00
496.28	949.00
496.54	957.00
496.80	921.00
497.05	910.00
497.31	955.00
497.57	962.00
497.83	923.00
498.09	943.00
498.35	955.00
498.61	950.00
498.87	947.00
499.13	940.00
499.39	952.00
499.65	938.00
499.91	927.00
500.17	903.00
500.43	1007.00
500.69	1037.00
500.95	910.00
501.20	932.00
501.46	957.00
501.72	976.00
501.98	964.00
502.24	958.00
502.50	969.00
502.76	932.00
503.02	921.00
503.28	932.00
503.54	978.00
503.80	984.00
504.06	937.00
504.32	954.00
504.58	953.00
504.83	948.00
505.09	908.00
505.35	938.00
505.61	932.00
505.87	939.00
506.13	930.00
506.39	916.00
506.65	962.00
506.91	992.00
507.17	914.00
507.43	926.00
507.68	938.00
507.94	980.00
508.20	918.00
508.46	911.00
508.72	970.00
508.98	971.00
509.24	908.00
509.50	952.00
509.76	935.00
510.02	946.00
510.28	914.00
510.53	915.00
510.79	954.00
511.05	926.00
511.31	902.00
511.57	920.00
511.83	940.00
512.09	971.00
512.35	926.00
512.61	938.00
512.87	946.00
513.12	968.00
513.38	909.00
513.64	931.00
513.90	951.00
514.16	985.00
514.42	927.00
514.68	926.00
514.94	956.00
515.20	946.00
515.45	897.00
515.71	913.00
515.97	936.00
516.23	933.00
516.49	905.00
516.75	913.00
517.01	925.00
517.27	914.00
517.53	893.00
517.78	929.00
518.04	939.00
518.30	921.00
518.56	917.00
518.82	956.00
519.08	973.00
519.34	932.00
519.60	911.00
519.85	934.00
520.11	922.00
520.37	937.00
520.63	931.00
520.89	938.00
521.15	951.00
521.41	932.00
521.66	894.00
521.92	914.00
522.18	970.00
522.44	974.00
522.70	918.00
522.96	904.00
523.22	973.00
523.48	961.00
523.73	924.00
523.99	923.00
524.25	986.00
524.51	972.00
524.77	918.00
525.03	918.00
525.29	944.00
525.54	955.00
525.80	912.00
526.06	901.00
526.32	923.00
526.58	917.00
526.84	898.00
527.09	909.00
527.35	925.00
527.61	930.00
527.87	923.00
528.13	950.00
528.39	934.00
528.65	934.00
528.90	882.00
529.16	921.00
529.42	930.00
529.68	922.00
529.94	900.00
530.20	917.00
530.45	916.00
530.71	949.00
530.97	905.00
531.23	929.00
531.49	952.00
531.75	936.00
532.00	919.00
532.26	913.00
532.52	950.00
532.78	928.00
533.04	896.00
533.30	914.00
533.55	929.00
533.81	933.00
534.07	891.00
534.33	918.00
534.59	963.00
534.85	965.00
535.10	906.00
535.36	913.00
