SpectraSuite Data File
++++++++++++++++++++++++++++++++++++
Date: Fri Dec 06 14:56:18 CET 2024
User: student
Dark Spectrum Present: No
Reference Spectrum Present: No
Number of Sampled Component Spectra: 1
Spectrometers: HR4C155
Integration Time (usec): 100000 (HR4C155)
Spectra Averaged: 1 (HR4C155)
Boxcar Smoothing: 0 (HR4C155)
Correct for Electrical Dark: No (HR4C155)
Strobe/Lamp Enabled: No (HR4C155)
Correct for Detector Non-linearity: No (HR4C155)
Correct for Stray Light: No (HR4C155)
Number of Pixels in Processed Spectrum: 3648
>>>>>Begin Processed Spectral Data<<<<<
195.39	722.00
195.66	722.00
195.93	722.00
196.20	682.00
196.46	728.00
196.73	833.00
197.00	824.00
197.27	825.00
197.54	868.00
197.81	870.00
198.08	856.00
198.35	871.00
198.61	889.00
198.88	849.00
199.15	849.00
199.42	866.00
199.69	882.00
199.96	860.00
200.23	868.00
200.49	860.00
200.76	900.00
201.03	885.00
201.30	872.00
201.57	923.00
201.84	929.00
202.11	869.00
202.38	897.00
202.64	901.00
202.91	930.00
203.18	859.00
203.45	923.00
203.72	988.00
203.99	910.00
204.25	901.00
204.52	892.00
204.79	932.00
205.06	932.00
205.33	865.00
205.60	885.00
205.87	925.00
206.13	921.00
206.40	880.00
206.67	863.00
206.94	913.00
207.21	928.00
207.48	906.00
207.75	896.00
208.01	919.00
208.28	914.00
208.55	874.00
208.82	890.00
209.09	888.00
209.36	913.00
209.62	901.00
209.89	930.00
210.16	934.00
210.43	922.00
210.70	867.00
210.97	884.00
211.23	926.00
211.50	943.00
211.77	904.00
212.04	894.00
212.31	909.00
212.58	945.00
212.84	898.00
213.11	906.00
213.38	865.00
213.65	895.00
213.92	882.00
214.18	883.00
214.45	937.00
214.72	930.00
214.99	866.00
215.26	880.00
215.53	875.00
215.79	901.00
216.06	907.00
216.33	921.00
216.60	886.00
216.87	924.00
217.13	871.00
217.40	868.00
217.67	900.00
217.94	950.00
218.21	885.00
218.48	937.00
218.74	961.00
219.01	921.00
219.28	862.00
219.55	876.00
219.82	913.00
220.08	931.00
220.35	890.00
220.62	883.00
220.89	939.00
221.16	952.00
221.42	892.00
221.69	899.00
221.96	904.00
222.23	918.00
222.50	913.00
222.76	914.00
223.03	914.00
223.30	909.00
223.57	871.00
223.84	863.00
224.10	864.00
224.37	920.00
224.64	891.00
224.91	891.00
225.18	920.00
225.44	925.00
225.71	897.00
225.98	907.00
226.25	938.00
226.51	935.00
226.78	885.00
227.05	885.00
227.32	905.00
227.59	924.00
227.85	909.00
228.12	900.00
228.39	937.00
228.66	938.00
228.92	933.00
229.19	922.00
229.46	919.00
229.73	892.00
230.00	884.00
230.26	911.00
230.53	921.00
230.80	907.00
231.07	855.00
231.33	867.00
231.60	903.00
231.87	938.00
232.14	890.00
232.41	917.00
232.67	919.00
232.94	926.00
233.21	876.00
233.48	883.00
233.74	919.00
234.01	905.00
234.28	886.00
234.55	893.00
234.81	887.00
235.08	936.00
235.35	896.00
235.62	887.00
235.88	905.00
236.15	918.00
236.42	900.00
236.69	892.00
236.95	916.00
237.22	897.00
237.49	883.00
237.76	882.00
238.02	926.00
238.29	936.00
238.56	890.00
238.83	876.00
239.09	890.00
239.36	925.00
239.63	878.00
239.90	900.00
240.16	948.00
240.43	975.00
240.70	900.00
240.97	911.00
241.23	896.00
241.50	917.00
241.77	889.00
242.04	887.00
242.30	868.00
242.57	900.00
242.84	870.00
243.11	885.00
243.37	872.00
243.64	948.00
243.91	906.00
244.18	883.00
244.44	878.00
244.71	897.00
244.98	886.00
245.24	875.00
245.51	906.00
245.78	947.00
246.05	875.00
246.31	888.00
246.58	926.00
246.85	920.00
247.12	884.00
247.38	910.00
247.65	890.00
247.92	918.00
248.18	891.00
248.45	885.00
248.72	891.00
248.99	892.00
249.25	862.00
249.52	888.00
249.79	918.00
250.05	912.00
250.32	871.00
250.59	883.00
250.86	893.00
251.12	901.00
251.39	881.00
251.66	913.00
251.92	939.00
252.19	956.00
252.46	892.00
252.73	918.00
252.99	932.00
253.26	930.00
253.53	875.00
253.79	912.00
254.06	912.00
254.33	885.00
254.60	860.00
254.86	871.00
255.13	930.00
255.40	935.00
255.66	890.00
255.93	908.00
256.20	913.00
256.46	940.00
256.73	888.00
257.00	910.00
257.26	912.00
257.53	923.00
257.80	903.00
258.07	920.00
258.33	957.00
258.60	929.00
258.87	868.00
259.13	900.00
259.40	906.00
259.67	938.00
259.93	900.00
260.20	915.00
260.47	916.00
260.73	902.00
261.00	887.00
261.27	913.00
261.53	925.00
261.80	907.00
262.07	865.00
262.34	890.00
262.60	870.00
262.87	890.00
263.14	879.00
263.40	912.00
263.67	910.00
263.94	910.00
264.20	885.00
264.47	868.00
264.74	877.00
265.00	888.00
265.27	867.00
265.54	884.00
265.80	926.00
266.07	941.00
266.34	868.00
266.60	886.00
266.87	905.00
267.14	921.00
267.40	869.00
267.67	854.00
267.94	903.00
268.20	891.00
268.47	862.00
268.74	871.00
269.00	900.00
269.27	883.00
269.54	839.00
269.80	849.00
270.07	913.00
270.33	893.00
270.60	889.00
270.87	901.00
271.13	908.00
271.40	924.00
271.67	845.00
271.93	849.00
272.20	887.00
272.47	893.00
272.73	844.00
273.00	890.00
273.27	877.00
273.53	918.00
273.80	889.00
274.07	868.00
274.33	886.00
274.60	934.00
274.86	900.00
275.13	899.00
275.40	902.00
275.66	943.00
275.93	907.00
276.20	883.00
276.46	902.00
276.73	890.00
277.00	885.00
277.26	902.00
277.53	894.00
277.79	894.00
278.06	873.00
278.33	934.00
278.59	939.00
278.86	886.00
279.13	858.00
279.39	893.00
279.66	927.00
279.93	935.00
280.19	901.00
280.46	868.00
280.72	869.00
280.99	910.00
281.26	866.00
281.52	882.00
281.79	904.00
282.05	911.00
282.32	894.00
282.59	880.00
282.85	923.00
283.12	923.00
283.39	897.00
283.65	895.00
283.92	896.00
284.18	910.00
284.45	896.00
284.72	890.00
284.98	897.00
285.25	893.00
285.51	901.00
285.78	891.00
286.05	889.00
286.31	898.00
286.58	864.00
286.84	869.00
287.11	875.00
287.38	908.00
287.64	899.00
287.91	866.00
288.17	911.00
288.44	907.00
288.71	846.00
288.97	876.00
289.24	921.00
289.50	906.00
289.77	898.00
290.04	857.00
290.30	868.00
290.57	908.00
290.83	875.00
291.10	868.00
291.37	907.00
291.63	882.00
291.90	900.00
292.16	899.00
292.43	914.00
292.70	904.00
292.96	853.00
293.23	869.00
293.49	886.00
293.76	896.00
294.02	875.00
294.29	873.00
294.56	906.00
294.82	910.00
295.09	882.00
295.35	878.00
295.62	916.00
295.89	926.00
296.15	863.00
296.42	873.00
296.68	889.00
296.95	895.00
297.21	892.00
297.48	886.00
297.75	906.00
298.01	939.00
298.28	889.00
298.54	916.00
298.81	890.00
299.07	893.00
299.34	849.00
299.61	885.00
299.87	915.00
300.14	892.00
300.40	897.00
300.67	890.00
300.93	897.00
301.20	936.00
301.46	887.00
301.73	892.00
302.00	915.00
302.26	900.00
302.53	898.00
302.79	894.00
303.06	897.00
303.32	941.00
303.59	870.00
303.85	874.00
304.12	883.00
304.39	895.00
304.65	872.00
304.92	887.00
305.18	900.00
305.45	902.00
305.71	875.00
305.98	888.00
306.24	887.00
306.51	894.00
306.77	860.00
307.04	889.00
307.31	920.00
307.57	935.00
307.84	869.00
308.10	881.00
308.37	874.00
308.63	878.00
308.90	864.00
309.16	885.00
309.43	916.00
309.69	895.00
309.96	878.00
310.22	878.00
310.49	905.00
310.76	912.00
311.02	857.00
311.29	882.00
311.55	897.00
311.82	901.00
312.08	878.00
312.35	884.00
312.61	895.00
312.88	910.00
313.14	882.00
313.41	869.00
313.67	873.00
313.94	900.00
314.20	889.00
314.47	902.00
314.73	881.00
315.00	881.00
315.26	884.00
315.53	919.00
315.79	922.00
316.06	901.00
316.32	862.00
316.59	880.00
316.85	906.00
317.12	910.00
317.39	859.00
317.65	888.00
317.92	898.00
318.18	913.00
318.45	876.00
318.71	910.00
318.98	934.00
319.24	914.00
319.51	870.00
319.77	886.00
320.04	891.00
320.30	886.00
320.57	870.00
320.83	857.00
321.10	862.00
321.36	892.00
321.63	858.00
321.89	858.00
322.16	917.00
322.42	913.00
322.69	874.00
322.95	882.00
323.22	891.00
323.48	918.00
323.75	869.00
324.01	905.00
324.28	887.00
324.54	915.00
324.80	886.00
325.07	912.00
325.33	918.00
325.60	890.00
325.86	857.00
326.13	864.00
326.39	876.00
326.66	881.00
326.92	852.00
327.19	886.00
327.45	929.00
327.72	934.00
327.98	878.00
328.25	854.00
328.51	886.00
328.78	884.00
329.04	856.00
329.31	905.00
329.57	906.00
329.84	895.00
330.10	882.00
330.37	876.00
330.63	902.00
330.89	924.00
331.16	880.00
331.42	876.00
331.69	923.00
331.95	891.00
332.22	861.00
332.48	908.00
332.75	901.00
333.01	874.00
333.28	857.00
333.54	877.00
333.81	894.00
334.07	915.00
334.34	877.00
334.60	907.00
334.86	943.00
335.13	938.00
335.39	873.00
335.66	876.00
335.92	915.00
336.19	912.00
336.45	855.00
336.72	878.00
336.98	878.00
337.24	897.00
337.51	863.00
337.77	889.00
338.04	893.00
338.30	891.00
338.57	850.00
338.83	877.00
339.10	909.00
339.36	915.00
339.63	877.00
339.89	857.00
340.15	889.00
340.42	914.00
340.68	895.00
340.95	912.00
341.21	904.00
341.48	903.00
341.74	854.00
342.00	857.00
342.27	902.00
342.53	904.00
342.80	864.00
343.06	872.00
343.33	901.00
343.59	917.00
343.85	870.00
344.12	882.00
344.38	940.00
344.65	945.00
344.91	888.00
345.18	875.00
345.44	886.00
345.70	884.00
345.97	838.00
346.23	866.00
346.50	915.00
346.76	905.00
347.03	886.00
347.29	881.00
347.55	891.00
347.82	880.00
348.08	850.00
348.35	862.00
348.61	923.00
348.87	905.00
349.14	854.00
349.40	851.00
349.67	900.00
349.93	887.00
350.20	861.00
350.46	883.00
350.72	922.00
350.99	910.00
351.25	896.00
351.52	887.00
351.78	882.00
352.04	895.00
352.31	878.00
352.57	875.00
352.84	880.00
353.10	873.00
353.36	871.00
353.63	870.00
353.89	877.00
354.16	909.00
354.42	891.00
354.68	901.00
354.95	914.00
355.21	899.00
355.48	862.00
355.74	906.00
356.00	922.00
356.27	924.00
356.53	861.00
356.80	870.00
357.06	904.00
357.32	934.00
357.59	889.00
357.85	893.00
358.11	925.00
358.38	917.00
358.64	877.00
358.91	880.00
359.17	883.00
359.43	908.00
359.70	897.00
359.96	881.00
360.22	905.00
360.49	892.00
360.75	885.00
361.02	848.00
361.28	868.00
361.54	890.00
361.81	861.00
362.07	870.00
362.33	874.00
362.60	876.00
362.86	860.00
363.13	897.00
363.39	916.00
363.65	910.00
363.92	847.00
364.18	853.00
364.44	874.00
364.71	893.00
364.97	871.00
365.24	877.00
365.50	903.00
365.76	927.00
366.03	879.00
366.29	888.00
366.55	900.00
366.82	886.00
367.08	856.00
367.34	893.00
367.61	914.00
367.87	903.00
368.13	884.00
368.40	869.00
368.66	930.00
368.93	921.00
369.19	848.00
369.45	858.00
369.72	907.00
369.98	890.00
370.24	867.00
370.51	877.00
370.77	885.00
371.03	885.00
371.30	877.00
371.56	907.00
371.82	908.00
372.09	902.00
372.35	897.00
372.61	907.00
372.88	901.00
373.14	893.00
373.40	891.00
373.67	876.00
373.93	904.00
374.19	925.00
374.46	860.00
374.72	861.00
374.98	899.00
375.25	894.00
375.51	886.00
375.77	902.00
376.04	912.00
376.30	905.00
376.56	840.00
376.83	867.00
377.09	901.00
377.35	890.00
377.62	872.00
377.88	881.00
378.14	880.00
378.41	907.00
378.67	885.00
378.93	880.00
379.20	916.00
379.46	904.00
379.72	874.00
379.99	878.00
380.25	878.00
380.51	857.00
380.77	862.00
381.04	881.00
381.30	906.00
381.56	916.00
381.83	893.00
382.09	885.00
382.35	891.00
382.62	923.00
382.88	894.00
383.14	872.00
383.41	891.00
383.67	879.00
383.93	897.00
384.20	884.00
384.46	910.00
384.72	926.00
384.98	862.00
385.25	900.00
385.51	913.00
385.77	897.00
386.04	870.00
386.30	872.00
386.56	896.00
386.82	932.00
387.09	869.00
387.35	901.00
387.61	959.00
387.88	919.00
388.14	883.00
388.40	881.00
388.67	887.00
388.93	886.00
389.19	877.00
389.45	870.00
389.72	870.00
389.98	918.00
390.24	880.00
390.51	866.00
390.77	908.00
391.03	920.00
391.29	851.00
391.56	873.00
391.82	918.00
392.08	936.00
392.35	887.00
392.61	881.00
392.87	892.00
393.13	912.00
393.40	867.00
393.66	877.00
393.92	902.00
394.18	905.00
394.45	856.00
394.71	861.00
394.97	877.00
395.24	880.00
395.50	859.00
395.76	885.00
396.02	900.00
396.29	906.00
396.55	854.00
396.81	826.00
397.07	886.00
397.34	864.00
397.60	852.00
397.86	846.00
398.12	864.00
398.39	908.00
398.65	854.00
398.91	872.00
399.17	893.00
399.44	860.00
399.70	839.00
399.96	837.00
400.22	859.00
400.49	905.00
400.75	877.00
401.01	869.00
401.27	871.00
401.54	913.00
401.80	876.00
402.06	866.00
402.32	921.00
402.59	898.00
402.85	868.00
403.11	863.00
403.37	869.00
403.64	915.00
403.90	860.00
404.16	861.00
404.42	879.00
404.69	866.00
404.95	869.00
405.21	857.00
405.47	886.00
405.74	922.00
406.00	863.00
406.26	870.00
406.52	906.00
406.79	918.00
407.05	871.00
407.31	885.00
407.57	883.00
407.83	898.00
408.10	851.00
408.36	857.00
408.62	882.00
408.88	890.00
409.15	857.00
409.41	850.00
409.67	876.00
409.93	900.00
410.20	883.00
410.46	869.00
410.72	881.00
410.98	882.00
411.24	858.00
411.51	865.00
411.77	877.00
412.03	892.00
412.29	885.00
412.55	914.00
412.82	895.00
413.08	897.00
413.34	891.00
413.60	864.00
413.87	885.00
414.13	888.00
414.39	859.00
414.65	872.00
414.91	895.00
415.18	880.00
415.44	845.00
415.70	852.00
415.96	871.00
416.22	871.00
416.49	850.00
416.75	879.00
417.01	885.00
417.27	891.00
417.53	876.00
417.80	888.00
418.06	906.00
418.32	904.00
418.58	852.00
418.84	866.00
419.11	899.00
419.37	894.00
419.63	864.00
419.89	873.00
420.15	895.00
420.42	914.00
420.68	860.00
420.94	879.00
421.20	876.00
421.46	911.00
421.72	881.00
421.99	867.00
422.25	896.00
422.51	913.00
422.77	897.00
423.03	894.00
423.30	899.00
423.56	923.00
423.82	910.00
424.08	900.00
424.34	902.00
424.60	899.00
424.87	872.00
425.13	864.00
425.39	879.00
425.65	874.00
425.91	856.00
426.18	891.00
426.44	901.00
426.70	876.00
426.96	841.00
427.22	842.00
427.48	868.00
427.75	869.00
428.01	848.00
428.27	875.00
428.53	920.00
428.79	872.00
429.05	855.00
429.32	876.00
429.58	912.00
429.84	877.00
430.10	894.00
430.36	890.00
430.62	908.00
430.88	911.00
431.15	881.00
431.41	894.00
431.67	894.00
431.93	875.00
432.19	844.00
432.45	879.00
432.72	889.00
432.98	889.00
433.24	921.00
433.50	998.00
433.76	908.00
434.02	878.00
434.28	845.00
434.55	881.00
434.81	909.00
435.07	903.00
435.33	858.00
435.59	856.00
435.85	870.00
436.11	901.00
436.38	852.00
436.64	855.00
436.90	886.00
437.16	887.00
437.42	854.00
437.68	860.00
437.94	888.00
438.21	923.00
438.47	893.00
438.73	880.00
438.99	883.00
439.25	911.00
439.51	870.00
439.77	890.00
440.03	875.00
440.30	906.00
440.56	891.00
440.82	891.00
441.08	904.00
441.34	897.00
441.60	841.00
441.86	870.00
442.12	886.00
442.39	885.00
442.65	853.00
442.91	868.00
443.17	873.00
443.43	869.00
443.69	878.00
443.95	851.00
444.21	889.00
444.47	918.00
444.74	861.00
445.00	878.00
445.26	868.00
445.52	879.00
445.78	841.00
446.04	882.00
446.30	924.00
446.56	911.00
446.82	851.00
447.09	875.00
447.35	896.00
447.61	916.00
447.87	882.00
448.13	872.00
448.39	916.00
448.65	900.00
448.91	846.00
449.17	868.00
449.43	868.00
449.70	880.00
449.96	855.00
450.22	858.00
450.48	894.00
450.74	906.00
451.00	863.00
451.26	875.00
451.52	883.00
451.78	875.00
452.04	862.00
452.31	892.00
452.57	884.00
452.83	869.00
453.09	864.00
453.35	869.00
453.61	898.00
453.87	894.00
454.13	899.00
454.39	883.00
454.65	926.00
454.91	917.00
455.17	850.00
455.44	878.00
455.70	900.00
455.96	904.00
456.22	863.00
456.48	853.00
456.74	882.00
457.00	871.00
457.26	826.00
457.52	861.00
457.78	870.00
458.04	890.00
458.30	844.00
458.56	858.00
458.82	860.00
459.09	860.00
459.35	820.00
459.61	844.00
459.87	893.00
460.13	912.00
460.39	878.00
460.65	851.00
460.91	894.00
461.17	880.00
461.43	847.00
461.69	866.00
461.95	897.00
462.21	888.00
462.47	879.00
462.73	910.00
462.99	900.00
463.26	893.00
463.52	854.00
463.78	851.00
464.04	858.00
464.30	883.00
464.56	860.00
464.82	866.00
465.08	914.00
465.34	933.00
465.60	886.00
465.86	875.00
466.12	875.00
466.38	871.00
466.64	866.00
466.90	874.00
467.16	883.00
467.42	898.00
467.68	849.00
467.94	888.00
468.20	930.00
468.46	892.00
468.72	870.00
468.98	887.00
469.25	888.00
469.51	851.00
469.77	873.00
470.03	880.00
470.29	888.00
470.55	904.00
470.81	871.00
471.07	890.00
471.33	897.00
471.59	909.00
471.85	878.00
472.11	891.00
472.37	901.00
472.63	882.00
472.89	887.00
473.15	866.00
473.41	887.00
473.67	892.00
473.93	841.00
474.19	852.00
474.45	858.00
474.71	871.00
474.97	853.00
475.23	862.00
475.49	866.00
475.75	865.00
476.01	876.00
476.27	884.00
476.53	906.00
476.79	906.00
477.05	893.00
477.31	870.00
477.57	880.00
477.83	885.00
478.09	847.00
478.35	878.00
478.61	912.00
478.87	889.00
479.13	835.00
479.39	885.00
479.65	891.00
479.91	894.00
480.17	877.00
480.43	908.00
480.69	886.00
480.95	885.00
481.21	866.00
481.47	871.00
481.73	884.00
481.99	883.00
482.25	836.00
482.51	842.00
482.77	904.00
483.03	883.00
483.29	877.00
483.55	879.00
483.81	907.00
484.07	913.00
484.33	862.00
484.59	862.00
484.85	892.00
485.11	899.00
485.37	871.00
485.63	861.00
485.89	872.00
486.15	881.00
486.41	861.00
486.67	870.00
486.93	884.00
487.19	885.00
487.45	865.00
487.71	865.00
487.97	905.00
488.23	895.00
488.49	859.00
488.75	845.00
489.01	888.00
489.27	917.00
489.53	865.00
489.79	863.00
490.05	883.00
490.31	898.00
490.57	891.00
490.83	915.00
491.08	874.00
491.34	865.00
491.60	856.00
491.86	867.00
492.12	918.00
492.38	915.00
492.64	877.00
492.90	859.00
493.16	897.00
493.42	875.00
493.68	850.00
493.94	877.00
494.20	882.00
494.46	877.00
494.72	850.00
494.98	873.00
495.24	861.00
495.50	874.00
495.76	875.00
496.02	895.00
496.28	887.00
496.54	898.00
496.80	870.00
497.05	847.00
497.31	901.00
497.57	890.00
497.83	873.00
498.09	897.00
498.35	922.00
498.61	893.00
498.87	868.00
499.13	878.00
499.39	882.00
499.65	877.00
499.91	864.00
500.17	852.00
500.43	946.00
500.69	960.00
500.95	854.00
501.20	890.00
501.46	900.00
501.72	898.00
501.98	884.00
502.24	894.00
502.50	915.00
502.76	883.00
503.02	856.00
503.28	870.00
503.54	939.00
503.80	934.00
504.06	896.00
504.32	913.00
504.58	905.00
504.83	882.00
505.09	860.00
505.35	879.00
505.61	861.00
505.87	871.00
506.13	864.00
506.39	869.00
506.65	900.00
506.91	918.00
507.17	866.00
507.43	858.00
507.68	872.00
507.94	911.00
508.20	856.00
508.46	839.00
508.72	907.00
508.98	896.00
509.24	849.00
509.50	865.00
509.76	865.00
510.02	875.00
510.28	838.00
510.53	844.00
510.79	888.00
511.05	891.00
511.31	855.00
511.57	868.00
511.83	884.00
512.09	904.00
512.35	887.00
512.61	876.00
512.87	878.00
513.12	889.00
513.38	847.00
513.64	884.00
513.90	899.00
514.16	924.00
514.42	878.00
514.68	884.00
514.94	904.00
515.20	882.00
515.45	849.00
515.71	863.00
515.97	868.00
516.23	877.00
516.49	847.00
516.75	862.00
517.01	878.00
517.27	868.00
517.53	851.00
517.78	855.00
518.04	881.00
518.30	877.00
518.56	840.00
518.82	885.00
519.08	910.00
519.34	876.00
519.60	858.00
519.85	891.00
520.11	877.00
520.37	877.00
520.63	866.00
520.89	869.00
521.15	872.00
521.41	871.00
521.66	863.00
521.92	860.00
522.18	897.00
522.44	900.00
522.70	870.00
522.96	841.00
523.22	898.00
523.48	901.00
523.73	865.00
523.99	853.00
524.25	913.00
524.51	908.00
524.77	866.00
525.03	859.00
525.29	886.00
525.54	896.00
525.80	871.00
526.06	871.00
526.32	868.00
526.58	888.00
526.84	867.00
527.09	859.00
527.35	867.00
527.61	866.00
527.87	852.00
528.13	879.00
528.39	867.00
528.65	880.00
528.90	835.00
529.16	842.00
529.42	860.00
529.68	885.00
529.94	860.00
530.20	883.00
530.45	870.00
530.71	881.00
530.97	853.00
531.23	870.00
531.49	891.00
531.75	880.00
532.00	862.00
532.26	846.00
532.52	906.00
532.78	881.00
533.04	847.00
533.30	853.00
533.55	882.00
533.81	880.00
534.07	851.00
534.33	861.00
534.59	874.00
534.85	881.00
535.10	842.00
535.36	840.00
535.62	880.00
535.88	869.00
