SpectraSuite Data File
++++++++++++++++++++++++++++++++++++
Date: Fri Dec 06 14:53:27 CET 2024
User: student
Dark Spectrum Present: No
Reference Spectrum Present: No
Number of Sampled Component Spectra: 1
Spectrometers: HR4C155
Integration Time (usec): 100000 (HR4C155)
Spectra Averaged: 1 (HR4C155)
Boxcar Smoothing: 0 (HR4C155)
Correct for Electrical Dark: No (HR4C155)
Strobe/Lamp Enabled: No (HR4C155)
Correct for Detector Non-linearity: No (HR4C155)
Correct for Stray Light: No (HR4C155)
Number of Pixels in Processed Spectrum: 3648
>>>>>Begin Processed Spectral Data<<<<<
195.39	722.00
195.66	722.00
195.93	722.00
196.20	656.00
196.46	707.00
196.73	822.00
197.00	821.00
197.27	827.00
197.54	844.00
197.81	849.00
198.08	830.00
198.35	874.00
198.61	892.00
198.88	845.00
199.15	848.00
199.42	858.00
199.69	878.00
199.96	862.00
200.23	885.00
200.49	871.00
200.76	877.00
201.03	878.00
201.30	851.00
201.57	903.00
201.84	923.00
202.11	860.00
202.38	892.00
202.64	898.00
202.91	907.00
203.18	850.00
203.45	919.00
203.72	996.00
203.99	911.00
204.25	918.00
204.52	900.00
204.79	912.00
205.06	921.00
205.33	866.00
205.60	881.00
205.87	917.00
206.13	937.00
206.40	900.00
206.67	885.00
206.94	914.00
207.21	903.00
207.48	881.00
207.75	880.00
208.01	917.00
208.28	907.00
208.55	865.00
208.82	886.00
209.09	901.00
209.36	934.00
209.62	891.00
209.89	910.00
210.16	916.00
210.43	937.00
210.70	874.00
210.97	898.00
211.23	920.00
211.50	930.00
211.77	888.00
212.04	877.00
212.31	899.00
212.58	925.00
212.84	893.00
213.11	897.00
213.38	873.00
213.65	906.00
213.92	882.00
214.18	889.00
214.45	935.00
214.72	932.00
214.99	874.00
215.26	890.00
215.53	897.00
215.79	936.00
216.06	923.00
216.33	903.00
216.60	883.00
216.87	933.00
217.13	856.00
217.40	873.00
217.67	917.00
217.94	930.00
218.21	876.00
218.48	909.00
218.74	950.00
219.01	918.00
219.28	862.00
219.55	866.00
219.82	877.00
220.08	912.00
220.35	878.00
220.62	893.00
220.89	929.00
221.16	951.00
221.42	909.00
221.69	899.00
221.96	921.00
222.23	931.00
222.50	923.00
222.76	948.00
223.03	905.00
223.30	877.00
223.57	860.00
223.84	858.00
224.10	889.00
224.37	901.00
224.64	862.00
224.91	873.00
225.18	929.00
225.44	919.00
225.71	879.00
225.98	904.00
226.25	920.00
226.51	935.00
226.78	892.00
227.05	885.00
227.32	899.00
227.59	908.00
227.85	890.00
228.12	888.00
228.39	931.00
228.66	940.00
228.92	935.00
229.19	906.00
229.46	899.00
229.73	873.00
230.00	868.00
230.26	896.00
230.53	934.00
230.80	914.00
231.07	850.00
231.33	867.00
231.60	894.00
231.87	920.00
232.14	891.00
232.41	926.00
232.67	901.00
232.94	917.00
233.21	871.00
233.48	878.00
233.74	898.00
234.01	899.00
234.28	874.00
234.55	891.00
234.81	891.00
235.08	937.00
235.35	894.00
235.62	877.00
235.88	890.00
236.15	925.00
236.42	897.00
236.69	916.00
236.95	919.00
237.22	918.00
237.49	885.00
237.76	893.00
238.02	941.00
238.29	940.00
238.56	883.00
238.83	883.00
239.09	894.00
239.36	936.00
239.63	892.00
239.90	903.00
240.16	939.00
240.43	952.00
240.70	896.00
240.97	891.00
241.23	902.00
241.50	918.00
241.77	891.00
242.04	879.00
242.30	880.00
242.57	905.00
242.84	884.00
243.11	881.00
243.37	861.00
243.64	918.00
243.91	883.00
244.18	881.00
244.44	881.00
244.71	865.00
244.98	865.00
245.24	876.00
245.51	909.00
245.78	941.00
246.05	874.00
246.31	883.00
246.58	900.00
246.85	896.00
247.12	883.00
247.38	911.00
247.65	917.00
247.92	934.00
248.18	882.00
248.45	883.00
248.72	880.00
248.99	906.00
249.25	876.00
249.52	885.00
249.79	901.00
250.05	919.00
250.32	886.00
250.59	877.00
250.86	901.00
251.12	888.00
251.39	860.00
251.66	876.00
251.92	915.00
252.19	918.00
252.46	885.00
252.73	915.00
252.99	919.00
253.26	937.00
253.53	872.00
253.79	893.00
254.06	911.00
254.33	889.00
254.60	866.00
254.86	869.00
255.13	908.00
255.40	925.00
255.66	875.00
255.93	890.00
256.20	906.00
256.46	929.00
256.73	887.00
257.00	907.00
257.26	910.00
257.53	908.00
257.80	914.00
258.07	913.00
258.33	966.00
258.60	936.00
258.87	882.00
259.13	898.00
259.40	885.00
259.67	925.00
259.93	884.00
260.20	893.00
260.47	913.00
260.73	881.00
261.00	878.00
261.27	906.00
261.53	931.00
261.80	912.00
262.07	858.00
262.34	862.00
262.60	852.00
262.87	904.00
263.14	875.00
263.40	915.00
263.67	883.00
263.94	889.00
264.20	884.00
264.47	872.00
264.74	863.00
265.00	887.00
265.27	851.00
265.54	884.00
265.80	920.00
266.07	933.00
266.34	885.00
266.60	883.00
266.87	901.00
267.14	910.00
267.40	877.00
267.67	861.00
267.94	917.00
268.20	916.00
268.47	876.00
268.74	867.00
269.00	903.00
269.27	892.00
269.54	852.00
269.80	881.00
270.07	917.00
270.33	888.00
270.60	864.00
270.87	888.00
271.13	893.00
271.40	903.00
271.67	845.00
271.93	843.00
272.20	892.00
272.47	871.00
272.73	839.00
273.00	868.00
273.27	889.00
273.53	932.00
273.80	895.00
274.07	872.00
274.33	892.00
274.60	906.00
274.86	875.00
275.13	873.00
275.40	879.00
275.66	931.00
275.93	876.00
276.20	873.00
276.46	866.00
276.73	859.00
277.00	883.00
277.26	875.00
277.53	891.00
277.79	902.00
278.06	868.00
278.33	922.00
278.59	916.00
278.86	884.00
279.13	884.00
279.39	901.00
279.66	919.00
279.93	918.00
280.19	876.00
280.46	888.00
280.72	887.00
280.99	904.00
281.26	861.00
281.52	879.00
281.79	901.00
282.05	916.00
282.32	884.00
282.59	891.00
282.85	928.00
283.12	919.00
283.39	888.00
283.65	902.00
283.92	909.00
284.18	926.00
284.45	887.00
284.72	900.00
284.98	893.00
285.25	892.00
285.51	905.00
285.78	908.00
286.05	900.00
286.31	899.00
286.58	861.00
286.84	863.00
287.11	884.00
287.38	911.00
287.64	897.00
287.91	891.00
288.17	903.00
288.44	903.00
288.71	841.00
288.97	876.00
289.24	903.00
289.50	884.00
289.77	903.00
290.04	872.00
290.30	868.00
290.57	922.00
290.83	876.00
291.10	883.00
291.37	897.00
291.63	902.00
291.90	907.00
292.16	885.00
292.43	903.00
292.70	886.00
292.96	845.00
293.23	874.00
293.49	870.00
293.76	912.00
294.02	879.00
294.29	877.00
294.56	908.00
294.82	920.00
295.09	883.00
295.35	870.00
295.62	920.00
295.89	936.00
296.15	869.00
296.42	860.00
296.68	888.00
296.95	890.00
297.21	887.00
297.48	883.00
297.75	905.00
298.01	939.00
298.28	871.00
298.54	883.00
298.81	906.00
299.07	907.00
299.34	861.00
299.61	891.00
299.87	909.00
300.14	908.00
300.40	903.00
300.67	895.00
300.93	903.00
301.20	933.00
301.46	866.00
301.73	863.00
302.00	901.00
302.26	893.00
302.53	892.00
302.79	885.00
303.06	910.00
303.32	951.00
303.59	870.00
303.85	871.00
304.12	877.00
304.39	890.00
304.65	871.00
304.92	884.00
305.18	893.00
305.45	903.00
305.71	879.00
305.98	890.00
306.24	897.00
306.51	886.00
306.77	879.00
307.04	893.00
307.31	912.00
307.57	931.00
307.84	855.00
308.10	886.00
308.37	863.00
308.63	882.00
308.90	871.00
309.16	892.00
309.43	904.00
309.69	898.00
309.96	884.00
310.22	859.00
310.49	902.00
310.76	911.00
311.02	876.00
311.29	873.00
311.55	893.00
311.82	900.00
312.08	892.00
312.35	895.00
312.61	910.00
312.88	917.00
313.14	882.00
313.41	857.00
313.67	867.00
313.94	899.00
314.20	883.00
314.47	898.00
314.73	885.00
315.00	881.00
315.26	863.00
315.53	903.00
315.79	912.00
316.06	905.00
316.32	873.00
316.59	897.00
316.85	883.00
317.12	902.00
317.39	856.00
317.65	873.00
317.92	882.00
318.18	901.00
318.45	869.00
318.71	923.00
318.98	924.00
319.24	901.00
319.51	878.00
319.77	878.00
320.04	869.00
320.30	882.00
320.57	862.00
320.83	871.00
321.10	870.00
321.36	888.00
321.63	864.00
321.89	866.00
322.16	926.00
322.42	927.00
322.69	871.00
322.95	864.00
323.22	895.00
323.48	914.00
323.75	860.00
324.01	882.00
324.28	907.00
324.54	922.00
324.80	873.00
325.07	886.00
325.33	909.00
325.60	884.00
325.86	858.00
326.13	882.00
326.39	886.00
326.66	875.00
326.92	844.00
327.19	873.00
327.45	912.00
327.72	919.00
327.98	854.00
328.25	876.00
328.51	903.00
328.78	905.00
329.04	870.00
329.31	889.00
329.57	875.00
329.84	867.00
330.10	855.00
330.37	882.00
330.63	910.00
330.89	928.00
331.16	867.00
331.42	868.00
331.69	911.00
331.95	905.00
332.22	902.00
332.48	924.00
332.75	907.00
333.01	876.00
333.28	864.00
333.54	884.00
333.81	893.00
334.07	917.00
334.34	892.00
334.60	887.00
334.86	929.00
335.13	919.00
335.39	903.00
335.66	873.00
335.92	907.00
336.19	896.00
336.45	837.00
336.72	873.00
336.98	876.00
337.24	904.00
337.51	866.00
337.77	878.00
338.04	885.00
338.30	887.00
338.57	867.00
338.83	884.00
339.10	879.00
339.36	890.00
339.63	877.00
339.89	844.00
340.15	885.00
340.42	921.00
340.68	900.00
340.95	885.00
341.21	885.00
341.48	897.00
341.74	849.00
342.00	858.00
342.27	894.00
342.53	901.00
342.80	873.00
343.06	883.00
343.33	884.00
343.59	911.00
343.85	873.00
344.12	889.00
344.38	963.00
344.65	933.00
344.91	879.00
345.18	870.00
345.44	889.00
345.70	894.00
345.97	857.00
346.23	880.00
346.50	885.00
346.76	897.00
347.03	891.00
347.29	872.00
347.55	878.00
347.82	878.00
348.08	838.00
348.35	865.00
348.61	932.00
348.87	914.00
349.14	860.00
349.40	870.00
349.67	906.00
349.93	896.00
350.20	882.00
350.46	893.00
350.72	921.00
350.99	891.00
351.25	872.00
351.52	865.00
351.78	891.00
352.04	889.00
352.31	873.00
352.57	879.00
352.84	879.00
353.10	891.00
353.36	881.00
353.63	870.00
353.89	879.00
354.16	905.00
354.42	881.00
354.68	894.00
354.95	926.00
355.21	906.00
355.48	852.00
355.74	888.00
356.00	918.00
356.27	933.00
356.53	858.00
356.80	851.00
357.06	903.00
357.32	896.00
357.59	891.00
357.85	898.00
358.11	935.00
358.38	930.00
358.64	882.00
358.91	880.00
359.17	897.00
359.43	905.00
359.70	889.00
359.96	881.00
360.22	915.00
360.49	879.00
360.75	876.00
361.02	871.00
361.28	874.00
361.54	908.00
361.81	857.00
362.07	875.00
362.33	885.00
362.60	889.00
362.86	863.00
363.13	891.00
363.39	912.00
363.65	918.00
363.92	837.00
364.18	852.00
364.44	898.00
364.71	908.00
364.97	881.00
365.24	873.00
365.50	909.00
365.76	906.00
366.03	872.00
366.29	889.00
366.55	900.00
366.82	891.00
367.08	854.00
367.34	883.00
367.61	896.00
367.87	905.00
368.13	881.00
368.40	886.00
368.66	931.00
368.93	918.00
369.19	845.00
369.45	867.00
369.72	894.00
369.98	874.00
370.24	850.00
370.51	866.00
370.77	884.00
371.03	906.00
371.30	872.00
371.56	889.00
371.82	904.00
372.09	905.00
372.35	901.00
372.61	883.00
372.88	885.00
373.14	906.00
373.40	884.00
373.67	874.00
373.93	900.00
374.19	916.00
374.46	880.00
374.72	886.00
374.98	900.00
375.25	904.00
375.51	880.00
375.77	909.00
376.04	905.00
376.30	916.00
376.56	873.00
376.83	886.00
377.09	906.00
377.35	897.00
377.62	881.00
377.88	870.00
378.14	872.00
378.41	900.00
378.67	887.00
378.93	868.00
379.20	905.00
379.46	874.00
379.72	852.00
379.99	871.00
380.25	885.00
380.51	866.00
380.77	854.00
381.04	874.00
381.30	915.00
381.56	927.00
381.83	893.00
382.09	855.00
382.35	863.00
382.62	907.00
382.88	894.00
383.14	876.00
383.41	872.00
383.67	876.00
383.93	888.00
384.20	890.00
384.46	898.00
384.72	921.00
384.98	881.00
385.25	890.00
385.51	911.00
385.77	892.00
386.04	857.00
386.30	857.00
386.56	910.00
386.82	953.00
387.09	871.00
387.35	899.00
387.61	967.00
387.88	924.00
388.14	874.00
388.40	882.00
388.67	886.00
388.93	905.00
389.19	876.00
389.45	867.00
389.72	885.00
389.98	910.00
390.24	882.00
390.51	863.00
390.77	895.00
391.03	901.00
391.29	855.00
391.56	877.00
391.82	901.00
392.08	910.00
392.35	863.00
392.61	876.00
392.87	902.00
393.13	914.00
393.40	872.00
393.66	873.00
393.92	904.00
394.18	913.00
394.45	868.00
394.71	869.00
394.97	888.00
395.24	884.00
395.50	851.00
395.76	887.00
396.02	920.00
396.29	892.00
396.55	828.00
396.81	802.00
397.07	871.00
397.34	865.00
397.60	864.00
397.86	861.00
398.12	882.00
398.39	917.00
398.65	877.00
398.91	881.00
399.17	900.00
399.44	857.00
399.70	811.00
399.96	848.00
400.22	862.00
400.49	914.00
400.75	870.00
401.01	856.00
401.27	879.00
401.54	906.00
401.80	880.00
402.06	866.00
402.32	901.00
402.59	882.00
402.85	865.00
403.11	881.00
403.37	874.00
403.64	905.00
403.90	858.00
404.16	871.00
404.42	884.00
404.69	877.00
404.95	853.00
405.21	838.00
405.47	858.00
405.74	885.00
406.00	857.00
406.26	870.00
406.52	884.00
406.79	898.00
407.05	855.00
407.31	869.00
407.57	869.00
407.83	887.00
408.10	833.00
408.36	850.00
408.62	872.00
408.88	881.00
409.15	860.00
409.41	836.00
409.67	857.00
409.93	918.00
410.20	886.00
410.46	876.00
410.72	892.00
410.98	890.00
411.24	874.00
411.51	872.00
411.77	865.00
412.03	914.00
412.29	888.00
412.55	891.00
412.82	879.00
413.08	903.00
413.34	894.00
413.60	881.00
413.87	891.00
414.13	891.00
414.39	839.00
414.65	878.00
414.91	901.00
415.18	871.00
415.44	846.00
415.70	851.00
415.96	875.00
416.22	880.00
416.49	851.00
416.75	853.00
417.01	874.00
417.27	884.00
417.53	881.00
417.80	880.00
418.06	912.00
418.32	898.00
418.58	857.00
418.84	859.00
419.11	903.00
419.37	900.00
419.63	866.00
419.89	864.00
420.15	892.00
420.42	881.00
420.68	843.00
420.94	864.00
421.20	884.00
421.46	893.00
421.72	882.00
421.99	893.00
422.25	901.00
422.51	899.00
422.77	878.00
423.03	884.00
423.30	882.00
423.56	901.00
423.82	900.00
424.08	886.00
424.34	892.00
424.60	907.00
424.87	869.00
425.13	871.00
425.39	862.00
425.65	892.00
425.91	859.00
426.18	889.00
426.44	892.00
426.70	865.00
426.96	833.00
427.22	846.00
427.48	878.00
427.75	883.00
428.01	857.00
428.27	874.00
428.53	888.00
428.79	872.00
429.05	852.00
429.32	872.00
429.58	920.00
429.84	875.00
430.10	883.00
430.36	871.00
430.62	890.00
430.88	903.00
431.15	880.00
431.41	881.00
431.67	900.00
431.93	880.00
432.19	826.00
432.45	883.00
432.72	888.00
432.98	891.00
433.24	913.00
433.50	977.00
433.76	887.00
434.02	873.00
434.28	859.00
434.55	872.00
434.81	891.00
435.07	887.00
435.33	841.00
435.59	851.00
435.85	884.00
436.11	893.00
436.38	840.00
436.64	850.00
436.90	872.00
437.16	890.00
437.42	873.00
437.68	859.00
437.94	883.00
438.21	903.00
438.47	913.00
438.73	881.00
438.99	891.00
439.25	902.00
439.51	858.00
439.77	883.00
440.03	872.00
440.30	888.00
440.56	870.00
440.82	885.00
441.08	901.00
441.34	889.00
441.60	854.00
441.86	890.00
442.12	899.00
442.39	873.00
442.65	830.00
442.91	844.00
443.17	865.00
443.43	892.00
443.69	882.00
443.95	860.00
444.21	869.00
444.47	893.00
444.74	830.00
445.00	864.00
445.26	866.00
445.52	886.00
445.78	871.00
446.04	859.00
446.30	904.00
446.56	893.00
446.82	848.00
447.09	876.00
447.35	893.00
447.61	906.00
447.87	864.00
448.13	866.00
448.39	929.00
448.65	906.00
448.91	868.00
449.17	878.00
449.43	877.00
449.70	872.00
449.96	846.00
450.22	841.00
450.48	867.00
450.74	894.00
451.00	857.00
451.26	873.00
451.52	889.00
451.78	872.00
452.04	854.00
452.31	887.00
452.57	901.00
452.83	879.00
453.09	858.00
453.35	873.00
453.61	898.00
453.87	891.00
454.13	903.00
454.39	913.00
454.65	935.00
454.91	926.00
455.17	854.00
455.44	874.00
455.70	893.00
455.96	891.00
456.22	844.00
456.48	850.00
456.74	884.00
457.00	869.00
457.26	826.00
457.52	847.00
457.78	887.00
458.04	877.00
458.30	847.00
458.56	876.00
458.82	873.00
459.09	871.00
459.35	811.00
459.61	841.00
459.87	876.00
460.13	894.00
460.39	859.00
460.65	840.00
460.91	904.00
461.17	874.00
461.43	834.00
461.69	843.00
461.95	888.00
462.21	887.00
462.47	857.00
462.73	890.00
462.99	913.00
463.26	900.00
463.52	846.00
463.78	842.00
464.04	877.00
464.30	882.00
464.56	860.00
464.82	876.00
465.08	905.00
465.34	925.00
465.60	875.00
465.86	867.00
466.12	880.00
466.38	858.00
466.64	852.00
466.90	861.00
467.16	904.00
467.42	905.00
467.68	846.00
467.94	871.00
468.20	906.00
468.46	888.00
468.72	871.00
468.98	884.00
469.25	894.00
469.51	870.00
469.77	868.00
470.03	873.00
470.29	878.00
470.55	883.00
470.81	861.00
471.07	872.00
471.33	891.00
471.59	907.00
471.85	870.00
472.11	893.00
472.37	903.00
472.63	872.00
472.89	877.00
473.15	876.00
473.41	901.00
473.67	895.00
473.93	854.00
474.19	841.00
474.45	864.00
474.71	873.00
474.97	865.00
475.23	856.00
475.49	860.00
475.75	866.00
476.01	877.00
476.27	890.00
476.53	901.00
476.79	893.00
477.05	864.00
477.31	882.00
477.57	915.00
477.83	894.00
478.09	850.00
478.35	875.00
478.61	907.00
478.87	883.00
479.13	843.00
479.39	892.00
479.65	894.00
479.91	900.00
480.17	872.00
480.43	887.00
480.69	871.00
480.95	890.00
481.21	856.00
481.47	862.00
481.73	867.00
481.99	891.00
482.25	854.00
482.51	854.00
482.77	903.00
483.03	880.00
483.29	877.00
483.55	884.00
483.81	903.00
484.07	874.00
484.33	847.00
484.59	877.00
484.85	906.00
485.11	889.00
485.37	868.00
485.63	865.00
485.89	860.00
486.15	871.00
486.41	843.00
486.67	870.00
486.93	878.00
487.19	864.00
487.45	843.00
487.71	854.00
487.97	905.00
488.23	911.00
488.49	858.00
488.75	845.00
489.01	893.00
489.27	911.00
489.53	859.00
489.79	863.00
490.05	880.00
490.31	913.00
490.57	901.00
490.83	931.00
491.08	886.00
491.34	855.00
491.60	840.00
491.86	890.00
492.12	925.00
492.38	911.00
492.64	855.00
492.90	846.00
493.16	898.00
493.42	878.00
493.68	845.00
493.94	866.00
494.20	860.00
494.46	873.00
494.72	842.00
494.98	855.00
495.24	876.00
495.50	883.00
495.76	876.00
496.02	889.00
496.28	884.00
496.54	879.00
496.80	855.00
497.05	850.00
497.31	883.00
497.57	891.00
497.83	852.00
498.09	879.00
498.35	917.00
498.61	897.00
498.87	878.00
499.13	877.00
499.39	890.00
499.65	882.00
499.91	877.00
500.17	855.00
500.43	941.00
500.69	970.00
500.95	878.00
501.20	887.00
501.46	902.00
501.72	895.00
501.98	899.00
502.24	897.00
502.50	910.00
502.76	877.00
503.02	863.00
503.28	878.00
503.54	930.00
503.80	933.00
504.06	877.00
504.32	876.00
504.58	869.00
504.83	872.00
505.09	850.00
505.35	869.00
505.61	857.00
505.87	870.00
506.13	871.00
506.39	862.00
506.65	909.00
506.91	921.00
507.17	855.00
507.43	862.00
507.68	890.00
507.94	894.00
508.20	840.00
508.46	844.00
508.72	895.00
508.98	912.00
509.24	846.00
509.50	881.00
509.76	870.00
510.02	874.00
510.28	848.00
510.53	866.00
510.79	892.00
511.05	882.00
511.31	853.00
511.57	853.00
511.83	875.00
512.09	903.00
512.35	856.00
512.61	873.00
512.87	873.00
513.12	886.00
513.38	835.00
513.64	868.00
513.90	889.00
514.16	921.00
514.42	867.00
514.68	876.00
514.94	915.00
515.20	900.00
515.45	850.00
515.71	858.00
515.97	878.00
516.23	883.00
516.49	870.00
516.75	865.00
517.01	878.00
517.27	870.00
517.53	838.00
517.78	862.00
518.04	877.00
518.30	869.00
518.56	863.00
518.82	897.00
519.08	896.00
519.34	858.00
519.60	852.00
519.85	882.00
520.11	881.00
520.37	878.00
520.63	858.00
520.89	883.00
521.15	872.00
521.41	862.00
521.66	859.00
521.92	879.00
522.18	899.00
522.44	912.00
522.70	867.00
522.96	841.00
523.22	879.00
523.48	885.00
523.73	851.00
523.99	858.00
524.25	909.00
524.51	899.00
524.77	855.00
525.03	859.00
525.29	864.00
525.54	885.00
525.80	861.00
526.06	858.00
526.32	879.00
526.58	883.00
526.84	872.00
527.09	867.00
527.35	864.00
527.61	869.00
527.87	851.00
528.13	878.00
528.39	884.00
528.65	870.00
528.90	826.00
529.16	850.00
529.42	857.00
529.68	882.00
529.94	849.00
530.20	857.00
530.45	855.00
530.71	872.00
530.97	843.00
531.23	866.00
531.49	880.00
531.75	876.00
532.00	852.00
532.26	850.00
532.52	890.00
532.78	880.00
533.04	855.00
533.30	858.00
533.55	858.00
533.81	884.00
534.07	841.00
534.33	839.00
534.59	882.00
534.85	902.00
535.10	845.00
535.36	828.00
535.62	879.00
535.88	870.00
