SpectraSuite Data File
++++++++++++++++++++++++++++++++++++
Date: Fri Dec 06 14:45:09 CET 2024
User: student
Dark Spectrum Present: No
Reference Spectrum Present: No
Number of Sampled Component Spectra: 1
Spectrometers: HR4C155
Integration Time (usec): 100000 (HR4C155)
Spectra Averaged: 1 (HR4C155)
Boxcar Smoothing: 0 (HR4C155)
Correct for Electrical Dark: No (HR4C155)
Strobe/Lamp Enabled: No (HR4C155)
Correct for Detector Non-linearity: No (HR4C155)
Correct for Stray Light: No (HR4C155)
Number of Pixels in Processed Spectrum: 3648
>>>>>Begin Processed Spectral Data<<<<<
195.39	659.00
195.66	659.00
195.93	659.00
196.20	671.00
196.46	695.00
196.73	812.00
197.00	822.00
197.27	817.00
197.54	831.00
197.81	825.00
198.08	821.00
198.35	852.00
198.61	872.00
198.88	827.00
199.15	816.00
199.42	843.00
199.69	875.00
199.96	829.00
200.23	841.00
200.49	857.00
200.76	873.00
201.03	868.00
201.30	851.00
201.57	910.00
201.84	924.00
202.11	869.00
202.38	886.00
202.64	886.00
202.91	897.00
203.18	855.00
203.45	914.00
203.72	973.00
203.99	907.00
204.25	891.00
204.52	885.00
204.79	907.00
205.06	907.00
205.33	854.00
205.60	882.00
205.87	929.00
206.13	911.00
206.40	862.00
206.67	868.00
206.94	893.00
207.21	901.00
207.48	891.00
207.75	882.00
208.01	916.00
208.28	895.00
208.55	863.00
208.82	885.00
209.09	904.00
209.36	921.00
209.62	893.00
209.89	902.00
210.16	907.00
210.43	946.00
210.70	879.00
210.97	881.00
211.23	911.00
211.50	928.00
211.77	881.00
212.04	888.00
212.31	901.00
212.58	932.00
212.84	897.00
213.11	899.00
213.38	869.00
213.65	901.00
213.92	882.00
214.18	888.00
214.45	947.00
214.72	920.00
214.99	864.00
215.26	889.00
215.53	885.00
215.79	908.00
216.06	910.00
216.33	895.00
216.60	874.00
216.87	907.00
217.13	847.00
217.40	853.00
217.67	894.00
217.94	939.00
218.21	861.00
218.48	901.00
218.74	955.00
219.01	919.00
219.28	863.00
219.55	862.00
219.82	900.00
220.08	904.00
220.35	876.00
220.62	884.00
220.89	934.00
221.16	951.00
221.42	903.00
221.69	907.00
221.96	905.00
222.23	925.00
222.50	913.00
222.76	906.00
223.03	891.00
223.30	891.00
223.57	866.00
223.84	871.00
224.10	875.00
224.37	899.00
224.64	875.00
224.91	875.00
225.18	918.00
225.44	928.00
225.71	881.00
225.98	908.00
226.25	931.00
226.51	943.00
226.78	883.00
227.05	865.00
227.32	878.00
227.59	884.00
227.85	877.00
228.12	887.00
228.39	920.00
228.66	922.00
228.92	923.00
229.19	910.00
229.46	933.00
229.73	889.00
230.00	877.00
230.26	922.00
230.53	933.00
230.80	897.00
231.07	857.00
231.33	866.00
231.60	900.00
231.87	901.00
232.14	867.00
232.41	929.00
232.67	909.00
232.94	909.00
233.21	877.00
233.48	892.00
233.74	919.00
234.01	881.00
234.28	853.00
234.55	864.00
234.81	897.00
235.08	940.00
235.35	887.00
235.62	887.00
235.88	885.00
236.15	915.00
236.42	887.00
236.69	899.00
236.95	914.00
237.22	903.00
237.49	883.00
237.76	874.00
238.02	936.00
238.29	955.00
238.56	887.00
238.83	878.00
239.09	893.00
239.36	919.00
239.63	883.00
239.90	890.00
240.16	918.00
240.43	947.00
240.70	876.00
240.97	890.00
241.23	887.00
241.50	898.00
241.77	875.00
242.04	877.00
242.30	856.00
242.57	890.00
242.84	880.00
243.11	876.00
243.37	859.00
243.64	909.00
243.91	873.00
244.18	877.00
244.44	869.00
244.71	880.00
244.98	898.00
245.24	876.00
245.51	890.00
245.78	925.00
246.05	872.00
246.31	874.00
246.58	912.00
246.85	889.00
247.12	856.00
247.38	902.00
247.65	885.00
247.92	901.00
248.18	872.00
248.45	881.00
248.72	881.00
248.99	894.00
249.25	846.00
249.52	879.00
249.79	901.00
250.05	905.00
250.32	869.00
250.59	863.00
250.86	878.00
251.12	881.00
251.39	844.00
251.66	871.00
251.92	915.00
252.19	917.00
252.46	860.00
252.73	899.00
252.99	912.00
253.26	910.00
253.53	866.00
253.79	874.00
254.06	890.00
254.33	871.00
254.60	829.00
254.86	851.00
255.13	888.00
255.40	932.00
255.66	888.00
255.93	892.00
256.20	897.00
256.46	912.00
256.73	876.00
257.00	883.00
257.26	915.00
257.53	920.00
257.80	880.00
258.07	888.00
258.33	936.00
258.60	918.00
258.87	851.00
259.13	889.00
259.40	886.00
259.67	911.00
259.93	883.00
260.20	890.00
260.47	917.00
260.73	897.00
261.00	877.00
261.27	892.00
261.53	915.00
261.80	906.00
262.07	856.00
262.34	873.00
262.60	861.00
262.87	887.00
263.14	864.00
263.40	893.00
263.67	875.00
263.94	885.00
264.20	877.00
264.47	845.00
264.74	879.00
265.00	884.00
265.27	867.00
265.54	884.00
265.80	911.00
266.07	934.00
266.34	865.00
266.60	876.00
266.87	882.00
267.14	886.00
267.40	878.00
267.67	871.00
267.94	885.00
268.20	877.00
268.47	858.00
268.74	857.00
269.00	877.00
269.27	881.00
269.54	849.00
269.80	874.00
270.07	914.00
270.33	900.00
270.60	870.00
270.87	882.00
271.13	886.00
271.40	898.00
271.67	832.00
271.93	831.00
272.20	885.00
272.47	852.00
272.73	818.00
273.00	846.00
273.27	858.00
273.53	899.00
273.80	863.00
274.07	868.00
274.33	877.00
274.60	912.00
274.86	869.00
275.13	875.00
275.40	864.00
275.66	908.00
275.93	872.00
276.20	859.00
276.46	865.00
276.73	848.00
277.00	855.00
277.26	875.00
277.53	878.00
277.79	890.00
278.06	871.00
278.33	899.00
278.59	933.00
278.86	871.00
279.13	879.00
279.39	896.00
279.66	924.00
279.93	916.00
280.19	857.00
280.46	872.00
280.72	874.00
280.99	890.00
281.26	864.00
281.52	854.00
281.79	893.00
282.05	880.00
282.32	859.00
282.59	886.00
282.85	908.00
283.12	890.00
283.39	877.00
283.65	875.00
283.92	877.00
284.18	896.00
284.45	873.00
284.72	899.00
284.98	883.00
285.25	882.00
285.51	895.00
285.78	889.00
286.05	878.00
286.31	889.00
286.58	843.00
286.84	846.00
287.11	863.00
287.38	898.00
287.64	876.00
287.91	870.00
288.17	909.00
288.44	895.00
288.71	856.00
288.97	881.00
289.24	904.00
289.50	885.00
289.77	881.00
290.04	845.00
290.30	868.00
290.57	908.00
290.83	857.00
291.10	857.00
291.37	886.00
291.63	885.00
291.90	891.00
292.16	881.00
292.43	886.00
292.70	879.00
292.96	837.00
293.23	846.00
293.49	865.00
293.76	882.00
294.02	848.00
294.29	862.00
294.56	898.00
294.82	890.00
295.09	860.00
295.35	854.00
295.62	912.00
295.89	935.00
296.15	876.00
296.42	856.00
296.68	866.00
296.95	868.00
297.21	884.00
297.48	884.00
297.75	888.00
298.01	922.00
298.28	891.00
298.54	888.00
298.81	889.00
299.07	921.00
299.34	847.00
299.61	859.00
299.87	912.00
300.14	890.00
300.40	871.00
300.67	865.00
300.93	884.00
301.20	922.00
301.46	867.00
301.73	878.00
302.00	896.00
302.26	870.00
302.53	876.00
302.79	882.00
303.06	905.00
303.32	929.00
303.59	854.00
303.85	848.00
304.12	885.00
304.39	903.00
304.65	869.00
304.92	866.00
305.18	894.00
305.45	893.00
305.71	873.00
305.98	876.00
306.24	888.00
306.51	881.00
306.77	873.00
307.04	886.00
307.31	903.00
307.57	911.00
307.84	846.00
308.10	867.00
308.37	863.00
308.63	878.00
308.90	857.00
309.16	886.00
309.43	911.00
309.69	881.00
309.96	864.00
310.22	869.00
310.49	887.00
310.76	904.00
311.02	853.00
311.29	864.00
311.55	877.00
311.82	885.00
312.08	876.00
312.35	878.00
312.61	897.00
312.88	911.00
313.14	873.00
313.41	862.00
313.67	859.00
313.94	891.00
314.20	879.00
314.47	893.00
314.73	870.00
315.00	879.00
315.26	869.00
315.53	907.00
315.79	897.00
316.06	885.00
316.32	870.00
316.59	891.00
316.85	880.00
317.12	893.00
317.39	847.00
317.65	870.00
317.92	882.00
318.18	884.00
318.45	873.00
318.71	901.00
318.98	909.00
319.24	897.00
319.51	890.00
319.77	866.00
320.04	883.00
320.30	891.00
320.57	857.00
320.83	854.00
321.10	853.00
321.36	883.00
321.63	862.00
321.89	856.00
322.16	907.00
322.42	902.00
322.69	862.00
322.95	847.00
323.22	883.00
323.48	909.00
323.75	869.00
324.01	884.00
324.28	901.00
324.54	893.00
324.80	862.00
325.07	907.00
325.33	911.00
325.60	894.00
325.86	859.00
326.13	868.00
326.39	880.00
326.66	873.00
326.92	827.00
327.19	868.00
327.45	917.00
327.72	907.00
327.98	855.00
328.25	871.00
328.51	886.00
328.78	890.00
329.04	869.00
329.31	877.00
329.57	871.00
329.84	883.00
330.10	867.00
330.37	876.00
330.63	906.00
330.89	918.00
331.16	854.00
331.42	859.00
331.69	905.00
331.95	881.00
332.22	870.00
332.48	907.00
332.75	885.00
333.01	866.00
333.28	857.00
333.54	874.00
333.81	885.00
334.07	903.00
334.34	880.00
334.60	889.00
334.86	930.00
335.13	914.00
335.39	880.00
335.66	875.00
335.92	900.00
336.19	892.00
336.45	828.00
336.72	853.00
336.98	869.00
337.24	883.00
337.51	853.00
337.77	874.00
338.04	872.00
338.30	872.00
338.57	854.00
338.83	870.00
339.10	895.00
339.36	892.00
339.63	858.00
339.89	844.00
340.15	881.00
340.42	897.00
340.68	873.00
340.95	894.00
341.21	890.00
341.48	886.00
341.74	847.00
342.00	833.00
342.27	874.00
342.53	896.00
342.80	869.00
343.06	880.00
343.33	890.00
343.59	885.00
343.85	837.00
344.12	861.00
344.38	911.00
344.65	907.00
344.91	853.00
345.18	856.00
345.44	882.00
345.70	869.00
345.97	834.00
346.23	858.00
346.50	877.00
346.76	892.00
347.03	896.00
347.29	872.00
347.55	866.00
347.82	873.00
348.08	829.00
348.35	840.00
348.61	928.00
348.87	908.00
349.14	854.00
349.40	871.00
349.67	912.00
349.93	891.00
350.20	892.00
350.46	893.00
350.72	911.00
350.99	879.00
351.25	869.00
351.52	873.00
351.78	885.00
352.04	896.00
352.31	867.00
352.57	865.00
352.84	857.00
353.10	878.00
353.36	867.00
353.63	855.00
353.89	879.00
354.16	903.00
354.42	873.00
354.68	866.00
354.95	905.00
355.21	918.00
355.48	861.00
355.74	898.00
356.00	926.00
356.27	919.00
356.53	854.00
356.80	862.00
357.06	904.00
357.32	906.00
357.59	893.00
357.85	892.00
358.11	923.00
358.38	891.00
358.64	857.00
358.91	871.00
359.17	881.00
359.43	911.00
359.70	879.00
359.96	892.00
360.22	916.00
360.49	882.00
360.75	866.00
361.02	851.00
361.28	860.00
361.54	870.00
361.81	857.00
362.07	879.00
362.33	879.00
362.60	880.00
362.86	851.00
363.13	881.00
363.39	895.00
363.65	902.00
363.92	838.00
364.18	842.00
364.44	894.00
364.71	901.00
364.97	865.00
365.24	855.00
365.50	891.00
365.76	900.00
366.03	863.00
366.29	889.00
366.55	900.00
366.82	883.00
367.08	833.00
367.34	868.00
367.61	881.00
367.87	889.00
368.13	884.00
368.40	877.00
368.66	927.00
368.93	903.00
369.19	834.00
369.45	855.00
369.72	869.00
369.98	879.00
370.24	845.00
370.51	872.00
370.77	901.00
371.03	893.00
371.30	855.00
371.56	894.00
371.82	899.00
372.09	878.00
372.35	875.00
372.61	866.00
372.88	890.00
373.14	907.00
373.40	873.00
373.67	858.00
373.93	874.00
374.19	896.00
374.46	855.00
374.72	854.00
374.98	894.00
375.25	876.00
375.51	872.00
375.77	898.00
376.04	901.00
376.30	903.00
376.56	848.00
376.83	860.00
377.09	885.00
377.35	877.00
377.62	878.00
377.88	867.00
378.14	862.00
378.41	900.00
378.67	865.00
378.93	868.00
379.20	894.00
379.46	881.00
379.72	858.00
379.99	859.00
380.25	858.00
380.51	855.00
380.77	869.00
381.04	891.00
381.30	903.00
381.56	909.00
381.83	877.00
382.09	864.00
382.35	886.00
382.62	889.00
382.88	882.00
383.14	865.00
383.41	878.00
383.67	883.00
383.93	890.00
384.20	888.00
384.46	898.00
384.72	910.00
384.98	853.00
385.25	887.00
385.51	907.00
385.77	881.00
386.04	863.00
386.30	853.00
386.56	889.00
386.82	934.00
387.09	865.00
387.35	895.00
387.61	952.00
387.88	915.00
388.14	889.00
388.40	875.00
388.67	869.00
388.93	882.00
389.19	888.00
389.45	883.00
389.72	890.00
389.98	890.00
390.24	874.00
390.51	857.00
390.77	909.00
391.03	919.00
391.29	864.00
391.56	868.00
391.82	893.00
392.08	930.00
392.35	870.00
392.61	855.00
392.87	889.00
393.13	914.00
393.40	882.00
393.66	858.00
393.92	901.00
394.18	904.00
394.45	858.00
394.71	877.00
394.97	867.00
395.24	855.00
395.50	851.00
395.76	883.00
396.02	890.00
396.29	882.00
396.55	841.00
396.81	836.00
397.07	875.00
397.34	853.00
397.60	842.00
397.86	840.00
398.12	869.00
398.39	907.00
398.65	862.00
398.91	870.00
399.17	869.00
399.44	840.00
399.70	805.00
399.96	843.00
400.22	873.00
400.49	904.00
400.75	881.00
401.01	874.00
401.27	867.00
401.54	889.00
401.80	870.00
402.06	859.00
402.32	893.00
402.59	880.00
402.85	861.00
403.11	863.00
403.37	868.00
403.64	900.00
403.90	860.00
404.16	861.00
404.42	885.00
404.69	876.00
404.95	858.00
405.21	833.00
405.47	858.00
405.74	894.00
406.00	857.00
406.26	855.00
406.52	890.00
406.79	901.00
407.05	857.00
407.31	868.00
407.57	864.00
407.83	882.00
408.10	845.00
408.36	863.00
408.62	886.00
408.88	884.00
409.15	850.00
409.41	817.00
409.67	854.00
409.93	928.00
410.20	880.00
410.46	862.00
410.72	875.00
410.98	887.00
411.24	877.00
411.51	887.00
411.77	861.00
412.03	873.00
412.29	900.00
412.55	881.00
412.82	858.00
413.08	889.00
413.34	882.00
413.60	869.00
413.87	878.00
414.13	874.00
414.39	838.00
414.65	879.00
414.91	880.00
415.18	866.00
415.44	833.00
415.70	843.00
415.96	865.00
416.22	876.00
416.49	834.00
416.75	854.00
417.01	875.00
417.27	861.00
417.53	848.00
417.80	862.00
418.06	888.00
418.32	885.00
418.58	862.00
418.84	852.00
419.11	894.00
419.37	891.00
419.63	871.00
419.89	865.00
420.15	877.00
420.42	884.00
420.68	860.00
420.94	865.00
421.20	866.00
421.46	882.00
421.72	892.00
421.99	886.00
422.25	866.00
422.51	895.00
422.77	876.00
423.03	900.00
423.30	889.00
423.56	897.00
423.82	895.00
424.08	883.00
424.34	886.00
424.60	885.00
424.87	861.00
425.13	833.00
425.39	859.00
425.65	884.00
425.91	843.00
426.18	869.00
426.44	883.00
426.70	849.00
426.96	812.00
427.22	846.00
427.48	869.00
427.75	857.00
428.01	829.00
428.27	866.00
428.53	890.00
428.79	867.00
429.05	857.00
429.32	863.00
429.58	907.00
429.84	880.00
430.10	870.00
430.36	876.00
430.62	906.00
430.88	891.00
431.15	878.00
431.41	873.00
431.67	881.00
431.93	870.00
432.19	839.00
432.45	880.00
432.72	875.00
432.98	888.00
433.24	908.00
433.50	966.00
433.76	876.00
434.02	874.00
434.28	852.00
434.55	867.00
434.81	878.00
435.07	869.00
435.33	822.00
435.59	846.00
435.85	865.00
436.11	879.00
436.38	844.00
436.64	850.00
436.90	871.00
437.16	872.00
437.42	856.00
437.68	865.00
437.94	892.00
438.21	901.00
438.47	884.00
438.73	874.00
438.99	869.00
439.25	889.00
439.51	866.00
439.77	850.00
440.03	870.00
440.30	874.00
440.56	841.00
440.82	881.00
441.08	886.00
441.34	886.00
441.60	847.00
441.86	864.00
442.12	879.00
442.39	887.00
442.65	851.00
442.91	859.00
443.17	865.00
443.43	889.00
443.69	872.00
443.95	843.00
444.21	854.00
444.47	894.00
444.74	842.00
445.00	864.00
445.26	861.00
445.52	877.00
445.78	856.00
446.04	857.00
446.30	894.00
446.56	887.00
446.82	839.00
447.09	843.00
447.35	886.00
447.61	876.00
447.87	871.00
448.13	896.00
448.39	923.00
448.65	910.00
448.91	845.00
449.17	850.00
449.43	872.00
449.70	882.00
449.96	851.00
450.22	856.00
450.48	881.00
450.74	917.00
451.00	847.00
451.26	846.00
451.52	889.00
451.78	885.00
452.04	865.00
452.31	884.00
452.57	884.00
452.83	866.00
453.09	873.00
453.35	872.00
453.61	869.00
453.87	868.00
454.13	875.00
454.39	883.00
454.65	924.00
454.91	900.00
455.17	838.00
455.44	855.00
455.70	894.00
455.96	878.00
456.22	845.00
456.48	863.00
456.74	886.00
457.00	844.00
457.26	810.00
457.52	860.00
457.78	878.00
458.04	866.00
458.30	830.00
458.56	874.00
458.82	863.00
459.09	854.00
459.35	808.00
459.61	842.00
459.87	885.00
460.13	902.00
460.39	857.00
460.65	842.00
460.91	897.00
461.17	883.00
461.43	825.00
461.69	843.00
461.95	884.00
462.21	865.00
462.47	857.00
462.73	891.00
462.99	902.00
463.26	882.00
463.52	842.00
463.78	839.00
464.04	853.00
464.30	861.00
464.56	838.00
464.82	865.00
465.08	903.00
465.34	911.00
465.60	865.00
465.86	870.00
466.12	889.00
466.38	863.00
466.64	862.00
466.90	863.00
467.16	875.00
467.42	890.00
467.68	843.00
467.94	863.00
468.20	894.00
468.46	874.00
468.72	856.00
468.98	861.00
469.25	881.00
469.51	847.00
469.77	861.00
470.03	870.00
470.29	879.00
470.55	882.00
470.81	853.00
471.07	861.00
471.33	882.00
471.59	901.00
471.85	870.00
472.11	875.00
472.37	896.00
472.63	864.00
472.89	858.00
473.15	857.00
473.41	880.00
473.67	866.00
473.93	826.00
474.19	838.00
474.45	865.00
474.71	883.00
474.97	861.00
475.23	856.00
475.49	847.00
475.75	849.00
476.01	841.00
476.27	879.00
476.53	905.00
476.79	890.00
477.05	863.00
477.31	863.00
477.57	881.00
477.83	866.00
478.09	810.00
478.35	862.00
478.61	902.00
478.87	870.00
479.13	847.00
479.39	877.00
479.65	889.00
479.91	893.00
480.17	856.00
480.43	881.00
480.69	857.00
480.95	874.00
481.21	857.00
481.47	863.00
481.73	877.00
481.99	861.00
482.25	844.00
482.51	837.00
482.77	902.00
483.03	894.00
483.29	881.00
483.55	889.00
483.81	903.00
484.07	896.00
484.33	852.00
484.59	845.00
484.85	874.00
485.11	871.00
485.37	851.00
485.63	865.00
485.89	868.00
486.15	869.00
486.41	848.00
486.67	875.00
486.93	887.00
487.19	857.00
487.45	849.00
487.71	867.00
487.97	909.00
488.23	889.00
488.49	836.00
488.75	848.00
489.01	889.00
489.27	909.00
489.53	850.00
489.79	846.00
490.05	868.00
490.31	894.00
490.57	871.00
490.83	917.00
491.08	899.00
491.34	863.00
491.60	840.00
491.86	882.00
492.12	909.00
492.38	884.00
492.64	840.00
492.90	836.00
493.16	874.00
493.42	858.00
493.68	844.00
493.94	883.00
494.20	863.00
494.46	869.00
494.72	833.00
494.98	842.00
495.24	869.00
495.50	873.00
495.76	866.00
496.02	892.00
496.28	902.00
496.54	892.00
496.80	853.00
497.05	845.00
497.31	889.00
497.57	899.00
497.83	844.00
498.09	874.00
498.35	891.00
498.61	882.00
498.87	867.00
499.13	849.00
499.39	869.00
499.65	872.00
499.91	875.00
500.17	857.00
500.43	925.00
500.69	952.00
500.95	861.00
501.20	891.00
501.46	893.00
501.72	907.00
501.98	886.00
502.24	890.00
502.50	901.00
502.76	867.00
503.02	860.00
503.28	862.00
503.54	906.00
503.80	904.00
504.06	889.00
504.32	898.00
504.58	904.00
504.83	874.00
505.09	850.00
505.35	879.00
505.61	863.00
505.87	876.00
506.13	853.00
506.39	846.00
506.65	892.00
506.91	918.00
507.17	865.00
507.43	846.00
507.68	872.00
507.94	905.00
508.20	843.00
508.46	836.00
508.72	882.00
508.98	897.00
509.24	829.00
509.50	874.00
509.76	862.00
510.02	867.00
510.28	848.00
510.53	841.00
510.79	881.00
511.05	884.00
511.31	860.00
511.57	868.00
511.83	880.00
512.09	893.00
512.35	855.00
512.61	847.00
512.87	879.00
513.12	888.00
513.38	842.00
513.64	871.00
513.90	889.00
514.16	908.00
514.42	862.00
514.68	866.00
514.94	887.00
515.20	901.00
515.45	863.00
515.71	841.00
515.97	854.00
516.23	873.00
516.49	848.00
516.75	867.00
517.01	870.00
517.27	856.00
517.53	833.00
517.78	865.00
518.04	878.00
518.30	865.00
518.56	842.00
518.82	873.00
519.08	904.00
519.34	863.00
519.60	875.00
519.85	878.00
520.11	862.00
520.37	852.00
520.63	858.00
520.89	866.00
521.15	885.00
521.41	870.00
521.66	853.00
521.92	864.00
522.18	893.00
522.44	866.00
522.70	862.00
522.96	846.00
523.22	877.00
523.48	866.00
523.73	857.00
523.99	847.00
524.25	899.00
524.51	888.00
524.77	844.00
525.03	853.00
525.29	878.00
525.54	897.00
525.80	856.00
526.06	861.00
526.32	877.00
526.58	887.00
526.84	852.00
527.09	848.00
527.35	862.00
527.61	857.00
527.87	853.00
528.13	901.00
528.39	870.00
528.65	849.00
528.90	823.00
529.16	842.00
529.42	844.00
529.68	865.00
529.94	843.00
530.20	864.00
530.45	856.00
530.71	863.00
530.97	846.00
531.23	858.00
531.49	855.00
531.75	868.00
532.00	846.00
532.26	839.00
532.52	882.00
532.78	872.00
533.04	840.00
533.30	843.00
533.55	865.00
533.81	876.00
534.07	835.00
534.33	848.00
534.59	877.00
534.85	880.00
535.10	851.00
535.36	837.00
535.62	875.00
535.88	861.00
