SpectraSuite Data File
++++++++++++++++++++++++++++++++++++
Date: Fri Dec 06 14:48:13 CET 2024
User: student
Dark Spectrum Present: No
Reference Spectrum Present: No
Number of Sampled Component Spectra: 1
Spectrometers: HR4C155
Integration Time (usec): 100000 (HR4C155)
Spectra Averaged: 1 (HR4C155)
Boxcar Smoothing: 0 (HR4C155)
Correct for Electrical Dark: No (HR4C155)
Strobe/Lamp Enabled: No (HR4C155)
Correct for Detector Non-linearity: No (HR4C155)
Correct for Stray Light: No (HR4C155)
Number of Pixels in Processed Spectrum: 3648
>>>>>Begin Processed Spectral Data<<<<<
195.39	652.00
195.66	652.00
195.93	652.00
196.20	652.00
196.46	706.00
196.73	816.00
197.00	831.00
197.27	833.00
197.54	842.00
197.81	861.00
198.08	841.00
198.35	868.00
198.61	881.00
198.88	851.00
199.15	817.00
199.42	844.00
199.69	865.00
199.96	847.00
200.23	865.00
200.49	846.00
200.76	877.00
201.03	869.00
201.30	851.00
201.57	894.00
201.84	902.00
202.11	866.00
202.38	886.00
202.64	910.00
202.91	912.00
203.18	843.00
203.45	896.00
203.72	966.00
203.99	902.00
204.25	909.00
204.52	885.00
204.79	906.00
205.06	916.00
205.33	846.00
205.60	888.00
205.87	907.00
206.13	916.00
206.40	902.00
206.67	880.00
206.94	914.00
207.21	916.00
207.48	886.00
207.75	876.00
208.01	929.00
208.28	922.00
208.55	879.00
208.82	897.00
209.09	892.00
209.36	902.00
209.62	891.00
209.89	895.00
210.16	928.00
210.43	945.00
210.70	895.00
210.97	894.00
211.23	909.00
211.50	909.00
211.77	880.00
212.04	894.00
212.31	904.00
212.58	926.00
212.84	889.00
213.11	892.00
213.38	889.00
213.65	899.00
213.92	876.00
214.18	889.00
214.45	932.00
214.72	918.00
214.99	860.00
215.26	902.00
215.53	884.00
215.79	913.00
216.06	907.00
216.33	904.00
216.60	878.00
216.87	911.00
217.13	844.00
217.40	869.00
217.67	894.00
217.94	921.00
218.21	872.00
218.48	903.00
218.74	942.00
219.01	909.00
219.28	845.00
219.55	867.00
219.82	910.00
220.08	907.00
220.35	866.00
220.62	874.00
220.89	919.00
221.16	948.00
221.42	894.00
221.69	900.00
221.96	907.00
222.23	940.00
222.50	930.00
222.76	921.00
223.03	883.00
223.30	887.00
223.57	873.00
223.84	868.00
224.10	860.00
224.37	915.00
224.64	858.00
224.91	873.00
225.18	920.00
225.44	931.00
225.71	875.00
225.98	900.00
226.25	921.00
226.51	928.00
226.78	868.00
227.05	861.00
227.32	905.00
227.59	900.00
227.85	892.00
228.12	885.00
228.39	917.00
228.66	931.00
228.92	935.00
229.19	905.00
229.46	922.00
229.73	907.00
230.00	866.00
230.26	901.00
230.53	906.00
230.80	905.00
231.07	851.00
231.33	859.00
231.60	890.00
231.87	914.00
232.14	870.00
232.41	913.00
232.67	908.00
232.94	915.00
233.21	871.00
233.48	898.00
233.74	898.00
234.01	904.00
234.28	863.00
234.55	888.00
234.81	880.00
235.08	923.00
235.35	877.00
235.62	853.00
235.88	889.00
236.15	906.00
236.42	894.00
236.69	890.00
236.95	907.00
237.22	882.00
237.49	885.00
237.76	891.00
238.02	935.00
238.29	944.00
238.56	877.00
238.83	887.00
239.09	882.00
239.36	927.00
239.63	878.00
239.90	897.00
240.16	938.00
240.43	939.00
240.70	872.00
240.97	875.00
241.23	898.00
241.50	919.00
241.77	888.00
242.04	892.00
242.30	851.00
242.57	881.00
242.84	863.00
243.11	881.00
243.37	861.00
243.64	925.00
243.91	878.00
244.18	865.00
244.44	863.00
244.71	884.00
244.98	887.00
245.24	899.00
245.51	905.00
245.78	926.00
246.05	860.00
246.31	846.00
246.58	903.00
246.85	883.00
247.12	880.00
247.38	904.00
247.65	907.00
247.92	919.00
248.18	892.00
248.45	886.00
248.72	892.00
248.99	910.00
249.25	855.00
249.52	870.00
249.79	903.00
250.05	894.00
250.32	880.00
250.59	900.00
250.86	891.00
251.12	886.00
251.39	873.00
251.66	894.00
251.92	929.00
252.19	921.00
252.46	869.00
252.73	914.00
252.99	920.00
253.26	918.00
253.53	871.00
253.79	900.00
254.06	895.00
254.33	887.00
254.60	861.00
254.86	876.00
255.13	928.00
255.40	931.00
255.66	892.00
255.93	902.00
256.20	919.00
256.46	921.00
256.73	879.00
257.00	890.00
257.26	898.00
257.53	913.00
257.80	881.00
258.07	882.00
258.33	935.00
258.60	930.00
258.87	865.00
259.13	891.00
259.40	889.00
259.67	929.00
259.93	868.00
260.20	889.00
260.47	911.00
260.73	906.00
261.00	888.00
261.27	898.00
261.53	921.00
261.80	898.00
262.07	853.00
262.34	877.00
262.60	851.00
262.87	884.00
263.14	856.00
263.40	889.00
263.67	884.00
263.94	875.00
264.20	874.00
264.47	859.00
264.74	882.00
265.00	885.00
265.27	852.00
265.54	860.00
265.80	907.00
266.07	928.00
266.34	860.00
266.60	883.00
266.87	902.00
267.14	903.00
267.40	860.00
267.67	854.00
267.94	887.00
268.20	902.00
268.47	858.00
268.74	882.00
269.00	908.00
269.27	882.00
269.54	833.00
269.80	844.00
270.07	903.00
270.33	881.00
270.60	896.00
270.87	895.00
271.13	885.00
271.40	910.00
271.67	839.00
271.93	828.00
272.20	891.00
272.47	873.00
272.73	846.00
273.00	863.00
273.27	873.00
273.53	931.00
273.80	876.00
274.07	852.00
274.33	865.00
274.60	899.00
274.86	879.00
275.13	883.00
275.40	882.00
275.66	926.00
275.93	891.00
276.20	880.00
276.46	884.00
276.73	883.00
277.00	868.00
277.26	884.00
277.53	899.00
277.79	878.00
278.06	881.00
278.33	917.00
278.59	924.00
278.86	875.00
279.13	862.00
279.39	869.00
279.66	920.00
279.93	923.00
280.19	862.00
280.46	868.00
280.72	868.00
280.99	892.00
281.26	868.00
281.52	868.00
281.79	897.00
282.05	901.00
282.32	884.00
282.59	873.00
282.85	918.00
283.12	911.00
283.39	875.00
283.65	879.00
283.92	890.00
284.18	896.00
284.45	874.00
284.72	877.00
284.98	884.00
285.25	878.00
285.51	888.00
285.78	892.00
286.05	878.00
286.31	896.00
286.58	865.00
286.84	876.00
287.11	872.00
287.38	893.00
287.64	896.00
287.91	866.00
288.17	918.00
288.44	896.00
288.71	846.00
288.97	880.00
289.24	920.00
289.50	886.00
289.77	891.00
290.04	855.00
290.30	872.00
290.57	914.00
290.83	849.00
291.10	857.00
291.37	890.00
291.63	890.00
291.90	886.00
292.16	881.00
292.43	895.00
292.70	872.00
292.96	826.00
293.23	850.00
293.49	864.00
293.76	893.00
294.02	858.00
294.29	880.00
294.56	898.00
294.82	897.00
295.09	869.00
295.35	865.00
295.62	913.00
295.89	907.00
296.15	865.00
296.42	879.00
296.68	884.00
296.95	888.00
297.21	896.00
297.48	866.00
297.75	890.00
298.01	910.00
298.28	874.00
298.54	892.00
298.81	897.00
299.07	896.00
299.34	854.00
299.61	864.00
299.87	916.00
300.14	881.00
300.40	872.00
300.67	883.00
300.93	905.00
301.20	927.00
301.46	876.00
301.73	880.00
302.00	897.00
302.26	870.00
302.53	870.00
302.79	878.00
303.06	900.00
303.32	954.00
303.59	858.00
303.85	867.00
304.12	892.00
304.39	890.00
304.65	881.00
304.92	863.00
305.18	882.00
305.45	906.00
305.71	860.00
305.98	891.00
306.24	882.00
306.51	888.00
306.77	871.00
307.04	874.00
307.31	913.00
307.57	916.00
307.84	834.00
308.10	860.00
308.37	852.00
308.63	871.00
308.90	869.00
309.16	869.00
309.43	889.00
309.69	890.00
309.96	881.00
310.22	876.00
310.49	887.00
310.76	906.00
311.02	867.00
311.29	863.00
311.55	878.00
311.82	910.00
312.08	897.00
312.35	888.00
312.61	916.00
312.88	917.00
313.14	871.00
313.41	860.00
313.67	864.00
313.94	884.00
314.20	859.00
314.47	903.00
314.73	891.00
315.00	882.00
315.26	868.00
315.53	886.00
315.79	904.00
316.06	898.00
316.32	876.00
316.59	893.00
316.85	899.00
317.12	906.00
317.39	850.00
317.65	868.00
317.92	887.00
318.18	885.00
318.45	868.00
318.71	919.00
318.98	918.00
319.24	894.00
319.51	890.00
319.77	872.00
320.04	886.00
320.30	889.00
320.57	870.00
320.83	866.00
321.10	869.00
321.36	891.00
321.63	850.00
321.89	856.00
322.16	937.00
322.42	903.00
322.69	866.00
322.95	850.00
323.22	881.00
323.48	900.00
323.75	866.00
324.01	872.00
324.28	895.00
324.54	915.00
324.80	867.00
325.07	887.00
325.33	881.00
325.60	868.00
325.86	838.00
326.13	863.00
326.39	872.00
326.66	863.00
326.92	837.00
327.19	876.00
327.45	912.00
327.72	911.00
327.98	859.00
328.25	861.00
328.51	890.00
328.78	883.00
329.04	860.00
329.31	885.00
329.57	890.00
329.84	866.00
330.10	854.00
330.37	872.00
330.63	905.00
330.89	916.00
331.16	882.00
331.42	876.00
331.69	905.00
331.95	901.00
332.22	894.00
332.48	910.00
332.75	890.00
333.01	866.00
333.28	842.00
333.54	873.00
333.81	890.00
334.07	897.00
334.34	883.00
334.60	886.00
334.86	913.00
335.13	922.00
335.39	888.00
335.66	883.00
335.92	913.00
336.19	893.00
336.45	844.00
336.72	862.00
336.98	868.00
337.24	894.00
337.51	850.00
337.77	869.00
338.04	891.00
338.30	874.00
338.57	839.00
338.83	863.00
339.10	902.00
339.36	904.00
339.63	867.00
339.89	854.00
340.15	892.00
340.42	903.00
340.68	880.00
340.95	878.00
341.21	891.00
341.48	913.00
341.74	870.00
342.00	855.00
342.27	889.00
342.53	889.00
342.80	850.00
343.06	868.00
343.33	888.00
343.59	911.00
343.85	879.00
344.12	890.00
344.38	941.00
344.65	923.00
344.91	859.00
345.18	867.00
345.44	878.00
345.70	875.00
345.97	847.00
346.23	854.00
346.50	901.00
346.76	889.00
347.03	876.00
347.29	877.00
347.55	869.00
347.82	867.00
348.08	861.00
348.35	869.00
348.61	927.00
348.87	909.00
349.14	861.00
349.40	859.00
349.67	887.00
349.93	868.00
350.20	863.00
350.46	881.00
350.72	899.00
350.99	879.00
351.25	867.00
351.52	895.00
351.78	881.00
352.04	892.00
352.31	877.00
352.57	872.00
352.84	867.00
353.10	893.00
353.36	879.00
353.63	866.00
353.89	872.00
354.16	883.00
354.42	864.00
354.68	894.00
354.95	927.00
355.21	925.00
355.48	857.00
355.74	890.00
356.00	932.00
356.27	926.00
356.53	857.00
356.80	867.00
357.06	892.00
357.32	911.00
357.59	884.00
357.85	901.00
358.11	927.00
358.38	908.00
358.64	870.00
358.91	884.00
359.17	880.00
359.43	914.00
359.70	881.00
359.96	882.00
360.22	893.00
360.49	892.00
360.75	871.00
361.02	865.00
361.28	882.00
361.54	903.00
361.81	862.00
362.07	866.00
362.33	870.00
362.60	874.00
362.86	862.00
363.13	886.00
363.39	917.00
363.65	913.00
363.92	837.00
364.18	840.00
364.44	872.00
364.71	881.00
364.97	863.00
365.24	855.00
365.50	881.00
365.76	894.00
366.03	873.00
366.29	886.00
366.55	905.00
366.82	894.00
367.08	842.00
367.34	870.00
367.61	915.00
367.87	921.00
368.13	866.00
368.40	885.00
368.66	944.00
368.93	927.00
369.19	839.00
369.45	854.00
369.72	868.00
369.98	859.00
370.24	855.00
370.51	877.00
370.77	884.00
371.03	886.00
371.30	891.00
371.56	891.00
371.82	904.00
372.09	894.00
372.35	878.00
372.61	883.00
372.88	884.00
373.14	904.00
373.40	867.00
373.67	879.00
373.93	888.00
374.19	893.00
374.46	852.00
374.72	850.00
374.98	900.00
375.25	905.00
375.51	890.00
375.77	900.00
376.04	916.00
376.30	900.00
376.56	855.00
376.83	867.00
377.09	885.00
377.35	900.00
377.62	885.00
377.88	869.00
378.14	875.00
378.41	881.00
378.67	862.00
378.93	864.00
379.20	908.00
379.46	882.00
379.72	847.00
379.99	853.00
380.25	881.00
380.51	862.00
380.77	859.00
381.04	875.00
381.30	877.00
381.56	911.00
381.83	891.00
382.09	874.00
382.35	868.00
382.62	892.00
382.88	888.00
383.14	868.00
383.41	870.00
383.67	876.00
383.93	877.00
384.20	892.00
384.46	903.00
384.72	913.00
384.98	840.00
385.25	870.00
385.51	903.00
385.77	889.00
386.04	858.00
386.30	863.00
386.56	905.00
386.82	940.00
387.09	872.00
387.35	882.00
387.61	951.00
387.88	906.00
388.14	867.00
388.40	885.00
388.67	871.00
388.93	878.00
389.19	876.00
389.45	884.00
389.72	888.00
389.98	911.00
390.24	871.00
390.51	859.00
390.77	910.00
391.03	915.00
391.29	858.00
391.56	883.00
391.82	893.00
392.08	920.00
392.35	869.00
392.61	862.00
392.87	895.00
393.13	917.00
393.40	877.00
393.66	857.00
393.92	899.00
394.18	893.00
394.45	843.00
394.71	869.00
394.97	870.00
395.24	873.00
395.50	858.00
395.76	890.00
396.02	904.00
396.29	890.00
396.55	844.00
396.81	833.00
397.07	868.00
397.34	863.00
397.60	846.00
397.86	857.00
398.12	890.00
398.39	917.00
398.65	858.00
398.91	867.00
399.17	881.00
399.44	835.00
399.70	817.00
399.96	852.00
400.22	862.00
400.49	913.00
400.75	881.00
401.01	867.00
401.27	877.00
401.54	910.00
401.80	876.00
402.06	862.00
402.32	893.00
402.59	874.00
402.85	856.00
403.11	847.00
403.37	860.00
403.64	925.00
403.90	871.00
404.16	860.00
404.42	869.00
404.69	868.00
404.95	855.00
405.21	828.00
405.47	872.00
405.74	898.00
406.00	845.00
406.26	844.00
406.52	879.00
406.79	903.00
407.05	861.00
407.31	881.00
407.57	873.00
407.83	887.00
408.10	826.00
408.36	844.00
408.62	871.00
408.88	874.00
409.15	867.00
409.41	828.00
409.67	860.00
409.93	905.00
410.20	880.00
410.46	867.00
410.72	867.00
410.98	871.00
411.24	859.00
411.51	875.00
411.77	865.00
412.03	869.00
412.29	866.00
412.55	894.00
412.82	881.00
413.08	886.00
413.34	871.00
413.60	881.00
413.87	879.00
414.13	908.00
414.39	854.00
414.65	870.00
414.91	906.00
415.18	878.00
415.44	842.00
415.70	861.00
415.96	884.00
416.22	866.00
416.49	849.00
416.75	866.00
417.01	877.00
417.27	886.00
417.53	866.00
417.80	877.00
418.06	913.00
418.32	918.00
418.58	842.00
418.84	855.00
419.11	882.00
419.37	888.00
419.63	851.00
419.89	830.00
420.15	872.00
420.42	891.00
420.68	847.00
420.94	863.00
421.20	863.00
421.46	877.00
421.72	862.00
421.99	874.00
422.25	875.00
422.51	896.00
422.77	873.00
423.03	877.00
423.30	878.00
423.56	892.00
423.82	893.00
424.08	889.00
424.34	892.00
424.60	902.00
424.87	866.00
425.13	856.00
425.39	876.00
425.65	871.00
425.91	847.00
426.18	879.00
426.44	884.00
426.70	864.00
426.96	825.00
427.22	842.00
427.48	875.00
427.75	881.00
428.01	822.00
428.27	854.00
428.53	901.00
428.79	865.00
429.05	841.00
429.32	854.00
429.58	914.00
429.84	888.00
430.10	879.00
430.36	881.00
430.62	907.00
430.88	906.00
431.15	880.00
431.41	882.00
431.67	889.00
431.93	871.00
432.19	850.00
432.45	871.00
432.72	885.00
432.98	888.00
433.24	887.00
433.50	964.00
433.76	880.00
434.02	864.00
434.28	840.00
434.55	857.00
434.81	896.00
435.07	893.00
435.33	831.00
435.59	851.00
435.85	861.00
436.11	880.00
436.38	854.00
436.64	835.00
436.90	860.00
437.16	862.00
437.42	854.00
437.68	866.00
437.94	889.00
438.21	901.00
438.47	891.00
438.73	897.00
438.99	886.00
439.25	881.00
439.51	842.00
439.77	864.00
440.03	867.00
440.30	885.00
440.56	865.00
440.82	893.00
441.08	897.00
441.34	878.00
441.60	836.00
441.86	873.00
442.12	893.00
442.39	880.00
442.65	866.00
442.91	864.00
443.17	863.00
443.43	882.00
443.69	861.00
443.95	844.00
444.21	870.00
444.47	906.00
444.74	839.00
445.00	879.00
445.26	876.00
445.52	883.00
445.78	856.00
446.04	858.00
446.30	896.00
446.56	888.00
446.82	861.00
447.09	861.00
447.35	881.00
447.61	880.00
447.87	867.00
448.13	874.00
448.39	934.00
448.65	899.00
448.91	856.00
449.17	854.00
449.43	850.00
449.70	861.00
449.96	841.00
450.22	851.00
450.48	881.00
450.74	922.00
451.00	856.00
451.26	872.00
451.52	888.00
451.78	876.00
452.04	833.00
452.31	877.00
452.57	892.00
452.83	860.00
453.09	867.00
453.35	857.00
453.61	881.00
453.87	900.00
454.13	899.00
454.39	898.00
454.65	940.00
454.91	929.00
455.17	854.00
455.44	851.00
455.70	875.00
455.96	880.00
456.22	848.00
456.48	864.00
456.74	881.00
457.00	867.00
457.26	812.00
457.52	856.00
457.78	875.00
458.04	882.00
458.30	839.00
458.56	855.00
458.82	868.00
459.09	855.00
459.35	802.00
459.61	843.00
459.87	884.00
460.13	901.00
460.39	858.00
460.65	833.00
460.91	890.00
461.17	877.00
461.43	824.00
461.69	842.00
461.95	870.00
462.21	854.00
462.47	861.00
462.73	901.00
462.99	897.00
463.26	896.00
463.52	845.00
463.78	822.00
464.04	857.00
464.30	880.00
464.56	864.00
464.82	872.00
465.08	912.00
465.34	904.00
465.60	868.00
465.86	858.00
466.12	865.00
466.38	860.00
466.64	844.00
466.90	858.00
467.16	873.00
467.42	888.00
467.68	848.00
467.94	855.00
468.20	903.00
468.46	889.00
468.72	852.00
468.98	890.00
469.25	899.00
469.51	861.00
469.77	865.00
470.03	865.00
470.29	871.00
470.55	882.00
470.81	851.00
471.07	860.00
471.33	885.00
471.59	896.00
471.85	852.00
472.11	881.00
472.37	897.00
472.63	881.00
472.89	868.00
473.15	857.00
473.41	877.00
473.67	872.00
473.93	829.00
474.19	842.00
474.45	851.00
474.71	866.00
474.97	852.00
475.23	850.00
475.49	873.00
475.75	861.00
476.01	860.00
476.27	876.00
476.53	894.00
476.79	889.00
477.05	860.00
477.31	857.00
477.57	875.00
477.83	873.00
478.09	831.00
478.35	874.00
478.61	911.00
478.87	876.00
479.13	856.00
479.39	894.00
479.65	911.00
479.91	887.00
480.17	875.00
480.43	891.00
480.69	874.00
480.95	890.00
481.21	846.00
481.47	871.00
481.73	881.00
481.99	870.00
482.25	826.00
482.51	835.00
482.77	887.00
483.03	890.00
483.29	868.00
483.55	877.00
483.81	918.00
484.07	905.00
484.33	848.00
484.59	864.00
484.85	892.00
485.11	890.00
485.37	864.00
485.63	858.00
485.89	849.00
486.15	856.00
486.41	835.00
486.67	852.00
486.93	885.00
487.19	876.00
487.45	854.00
487.71	857.00
487.97	874.00
488.23	885.00
488.49	854.00
488.75	866.00
489.01	891.00
489.27	915.00
489.53	858.00
489.79	845.00
490.05	878.00
490.31	888.00
490.57	879.00
490.83	914.00
491.08	871.00
491.34	867.00
491.60	861.00
491.86	871.00
492.12	911.00
492.38	910.00
492.64	848.00
492.90	838.00
493.16	891.00
493.42	864.00
493.68	844.00
493.94	864.00
494.20	863.00
494.46	885.00
494.72	845.00
494.98	859.00
495.24	873.00
495.50	872.00
495.76	874.00
496.02	888.00
496.28	904.00
496.54	895.00
496.80	872.00
497.05	842.00
497.31	878.00
497.57	889.00
497.83	854.00
498.09	879.00
498.35	898.00
498.61	897.00
498.87	865.00
499.13	872.00
499.39	891.00
499.65	875.00
499.91	873.00
500.17	853.00
500.43	933.00
500.69	968.00
500.95	857.00
501.20	875.00
501.46	879.00
501.72	898.00
501.98	886.00
502.24	879.00
502.50	890.00
502.76	865.00
503.02	862.00
503.28	875.00
503.54	914.00
503.80	897.00
504.06	875.00
504.32	882.00
504.58	897.00
504.83	897.00
505.09	853.00
505.35	873.00
505.61	859.00
505.87	885.00
506.13	866.00
506.39	850.00
506.65	884.00
506.91	924.00
507.17	877.00
507.43	849.00
507.68	866.00
507.94	902.00
508.20	850.00
508.46	857.00
508.72	903.00
508.98	917.00
509.24	854.00
509.50	881.00
509.76	872.00
510.02	873.00
510.28	837.00
510.53	855.00
510.79	884.00
511.05	861.00
511.31	842.00
511.57	850.00
511.83	878.00
512.09	893.00
512.35	852.00
512.61	868.00
512.87	878.00
513.12	908.00
513.38	856.00
513.64	861.00
513.90	882.00
514.16	915.00
514.42	870.00
514.68	874.00
514.94	907.00
515.20	892.00
515.45	848.00
515.71	864.00
515.97	884.00
516.23	892.00
516.49	866.00
516.75	874.00
517.01	877.00
517.27	869.00
517.53	851.00
517.78	860.00
518.04	877.00
518.30	859.00
518.56	830.00
518.82	881.00
519.08	921.00
519.34	863.00
519.60	849.00
519.85	866.00
520.11	872.00
520.37	885.00
520.63	863.00
520.89	866.00
521.15	872.00
521.41	870.00
521.66	860.00
521.92	871.00
522.18	893.00
522.44	911.00
522.70	866.00
522.96	841.00
523.22	894.00
523.48	891.00
523.73	861.00
523.99	850.00
524.25	903.00
524.51	891.00
524.77	858.00
525.03	855.00
525.29	878.00
525.54	880.00
525.80	852.00
526.06	866.00
526.32	875.00
526.58	884.00
526.84	841.00
527.09	847.00
527.35	845.00
527.61	852.00
527.87	850.00
528.13	877.00
528.39	871.00
528.65	874.00
528.90	825.00
529.16	845.00
529.42	841.00
529.68	859.00
529.94	859.00
530.20	859.00
530.45	863.00
530.71	889.00
530.97	858.00
531.23	864.00
531.49	876.00
531.75	859.00
532.00	860.00
532.26	859.00
532.52	893.00
532.78	875.00
533.04	849.00
533.30	855.00
533.55	873.00
533.81	865.00
534.07	809.00
534.33	824.00
534.59	891.00
534.85	890.00
535.10	852.00
535.36	850.00
535.62	886.00
535.88	877.00
