SpectraSuite Data File
++++++++++++++++++++++++++++++++++++
Date: Fri Dec 06 14:51:57 CET 2024
User: student
Dark Spectrum Present: No
Reference Spectrum Present: No
Number of Sampled Component Spectra: 1
Spectrometers: HR4C155
Integration Time (usec): 100000 (HR4C155)
Spectra Averaged: 1 (HR4C155)
Boxcar Smoothing: 0 (HR4C155)
Correct for Electrical Dark: No (HR4C155)
Strobe/Lamp Enabled: No (HR4C155)
Correct for Detector Non-linearity: No (HR4C155)
Correct for Stray Light: No (HR4C155)
Number of Pixels in Processed Spectrum: 3648
>>>>>Begin Processed Spectral Data<<<<<
195.39	707.00
195.66	707.00
195.93	707.00
196.20	674.00
196.46	701.00
196.73	827.00
197.00	837.00
197.27	821.00
197.54	855.00
197.81	844.00
198.08	824.00
198.35	861.00
198.61	875.00
198.88	850.00
199.15	848.00
199.42	856.00
199.69	872.00
199.96	848.00
200.23	853.00
200.49	846.00
200.76	884.00
201.03	856.00
201.30	862.00
201.57	897.00
201.84	901.00
202.11	868.00
202.38	897.00
202.64	904.00
202.91	904.00
203.18	858.00
203.45	914.00
203.72	988.00
203.99	926.00
204.25	917.00
204.52	890.00
204.79	907.00
205.06	919.00
205.33	865.00
205.60	895.00
205.87	932.00
206.13	921.00
206.40	890.00
206.67	875.00
206.94	908.00
207.21	902.00
207.48	912.00
207.75	894.00
208.01	937.00
208.28	909.00
208.55	856.00
208.82	892.00
209.09	900.00
209.36	926.00
209.62	891.00
209.89	927.00
210.16	928.00
210.43	950.00
210.70	883.00
210.97	888.00
211.23	921.00
211.50	935.00
211.77	893.00
212.04	893.00
212.31	904.00
212.58	908.00
212.84	882.00
213.11	881.00
213.38	854.00
213.65	912.00
213.92	877.00
214.18	876.00
214.45	925.00
214.72	922.00
214.99	877.00
215.26	888.00
215.53	885.00
215.79	908.00
216.06	891.00
216.33	909.00
216.60	874.00
216.87	915.00
217.13	841.00
217.40	873.00
217.67	905.00
217.94	934.00
218.21	877.00
218.48	905.00
218.74	956.00
219.01	914.00
219.28	847.00
219.55	865.00
219.82	918.00
220.08	933.00
220.35	886.00
220.62	889.00
220.89	933.00
221.16	942.00
221.42	907.00
221.69	904.00
221.96	910.00
222.23	928.00
222.50	911.00
222.76	929.00
223.03	891.00
223.30	892.00
223.57	875.00
223.84	867.00
224.10	880.00
224.37	893.00
224.64	880.00
224.91	896.00
225.18	928.00
225.44	933.00
225.71	889.00
225.98	922.00
226.25	923.00
226.51	943.00
226.78	886.00
227.05	872.00
227.32	908.00
227.59	909.00
227.85	885.00
228.12	891.00
228.39	933.00
228.66	941.00
228.92	920.00
229.19	904.00
229.46	927.00
229.73	903.00
230.00	868.00
230.26	892.00
230.53	913.00
230.80	887.00
231.07	849.00
231.33	872.00
231.60	903.00
231.87	914.00
232.14	891.00
232.41	915.00
232.67	918.00
232.94	933.00
233.21	881.00
233.48	891.00
233.74	901.00
234.01	892.00
234.28	855.00
234.55	893.00
234.81	900.00
235.08	944.00
235.35	888.00
235.62	890.00
235.88	883.00
236.15	913.00
236.42	889.00
236.69	890.00
236.95	920.00
237.22	904.00
237.49	900.00
237.76	890.00
238.02	913.00
238.29	939.00
238.56	884.00
238.83	873.00
239.09	897.00
239.36	924.00
239.63	872.00
239.90	885.00
240.16	928.00
240.43	966.00
240.70	897.00
240.97	894.00
241.23	911.00
241.50	915.00
241.77	892.00
242.04	878.00
242.30	866.00
242.57	877.00
242.84	883.00
243.11	899.00
243.37	874.00
243.64	940.00
243.91	898.00
244.18	878.00
244.44	854.00
244.71	880.00
244.98	885.00
245.24	888.00
245.51	916.00
245.78	918.00
246.05	849.00
246.31	881.00
246.58	922.00
246.85	905.00
247.12	873.00
247.38	899.00
247.65	898.00
247.92	919.00
248.18	873.00
248.45	887.00
248.72	887.00
248.99	902.00
249.25	876.00
249.52	896.00
249.79	911.00
250.05	897.00
250.32	878.00
250.59	874.00
250.86	876.00
251.12	881.00
251.39	866.00
251.66	904.00
251.92	922.00
252.19	934.00
252.46	864.00
252.73	918.00
252.99	926.00
253.26	927.00
253.53	887.00
253.79	893.00
254.06	899.00
254.33	907.00
254.60	858.00
254.86	864.00
255.13	926.00
255.40	924.00
255.66	882.00
255.93	900.00
256.20	913.00
256.46	924.00
256.73	881.00
257.00	891.00
257.26	907.00
257.53	905.00
257.80	910.00
258.07	937.00
258.33	972.00
258.60	939.00
258.87	876.00
259.13	892.00
259.40	878.00
259.67	920.00
259.93	890.00
260.20	900.00
260.47	920.00
260.73	876.00
261.00	867.00
261.27	908.00
261.53	950.00
261.80	932.00
262.07	861.00
262.34	882.00
262.60	893.00
262.87	901.00
263.14	886.00
263.40	916.00
263.67	886.00
263.94	887.00
264.20	864.00
264.47	852.00
264.74	871.00
265.00	886.00
265.27	862.00
265.54	873.00
265.80	923.00
266.07	925.00
266.34	871.00
266.60	888.00
266.87	910.00
267.14	908.00
267.40	865.00
267.67	862.00
267.94	891.00
268.20	882.00
268.47	857.00
268.74	872.00
269.00	889.00
269.27	875.00
269.54	848.00
269.80	873.00
270.07	917.00
270.33	885.00
270.60	873.00
270.87	901.00
271.13	888.00
271.40	901.00
271.67	837.00
271.93	849.00
272.20	897.00
272.47	902.00
272.73	842.00
273.00	872.00
273.27	884.00
273.53	938.00
273.80	885.00
274.07	871.00
274.33	886.00
274.60	907.00
274.86	875.00
275.13	881.00
275.40	883.00
275.66	917.00
275.93	874.00
276.20	862.00
276.46	877.00
276.73	881.00
277.00	863.00
277.26	901.00
277.53	912.00
277.79	892.00
278.06	880.00
278.33	914.00
278.59	896.00
278.86	874.00
279.13	857.00
279.39	882.00
279.66	914.00
279.93	913.00
280.19	869.00
280.46	897.00
280.72	889.00
280.99	907.00
281.26	857.00
281.52	867.00
281.79	902.00
282.05	899.00
282.32	884.00
282.59	889.00
282.85	916.00
283.12	902.00
283.39	875.00
283.65	915.00
283.92	915.00
284.18	911.00
284.45	885.00
284.72	892.00
284.98	897.00
285.25	885.00
285.51	878.00
285.78	871.00
286.05	882.00
286.31	895.00
286.58	850.00
286.84	867.00
287.11	870.00
287.38	908.00
287.64	909.00
287.91	894.00
288.17	900.00
288.44	902.00
288.71	857.00
288.97	890.00
289.24	919.00
289.50	896.00
289.77	900.00
290.04	866.00
290.30	867.00
290.57	916.00
290.83	865.00
291.10	881.00
291.37	901.00
291.63	889.00
291.90	887.00
292.16	895.00
292.43	924.00
292.70	887.00
292.96	842.00
293.23	868.00
293.49	892.00
293.76	908.00
294.02	874.00
294.29	891.00
294.56	912.00
294.82	902.00
295.09	881.00
295.35	874.00
295.62	909.00
295.89	920.00
296.15	872.00
296.42	861.00
296.68	878.00
296.95	888.00
297.21	892.00
297.48	877.00
297.75	894.00
298.01	914.00
298.28	886.00
298.54	898.00
298.81	915.00
299.07	894.00
299.34	854.00
299.61	887.00
299.87	928.00
300.14	900.00
300.40	900.00
300.67	884.00
300.93	894.00
301.20	931.00
301.46	873.00
301.73	880.00
302.00	898.00
302.26	890.00
302.53	892.00
302.79	876.00
303.06	900.00
303.32	940.00
303.59	868.00
303.85	851.00
304.12	879.00
304.39	912.00
304.65	884.00
304.92	883.00
305.18	893.00
305.45	913.00
305.71	884.00
305.98	891.00
306.24	881.00
306.51	881.00
306.77	872.00
307.04	899.00
307.31	931.00
307.57	917.00
307.84	855.00
308.10	882.00
308.37	875.00
308.63	877.00
308.90	858.00
309.16	878.00
309.43	911.00
309.69	891.00
309.96	872.00
310.22	872.00
310.49	887.00
310.76	917.00
311.02	866.00
311.29	877.00
311.55	888.00
311.82	888.00
312.08	885.00
312.35	900.00
312.61	925.00
312.88	919.00
313.14	874.00
313.41	850.00
313.67	857.00
313.94	901.00
314.20	877.00
314.47	887.00
314.73	878.00
315.00	872.00
315.26	844.00
315.53	900.00
315.79	918.00
316.06	915.00
316.32	882.00
316.59	883.00
316.85	877.00
317.12	900.00
317.39	849.00
317.65	883.00
317.92	888.00
318.18	885.00
318.45	866.00
318.71	913.00
318.98	910.00
319.24	880.00
319.51	884.00
319.77	868.00
320.04	864.00
320.30	881.00
320.57	853.00
320.83	853.00
321.10	854.00
321.36	881.00
321.63	860.00
321.89	857.00
322.16	925.00
322.42	915.00
322.69	869.00
322.95	865.00
323.22	896.00
323.48	913.00
323.75	864.00
324.01	872.00
324.28	900.00
324.54	915.00
324.80	887.00
325.07	890.00
325.33	908.00
325.60	881.00
325.86	853.00
326.13	872.00
326.39	884.00
326.66	877.00
326.92	833.00
327.19	872.00
327.45	917.00
327.72	925.00
327.98	869.00
328.25	866.00
328.51	892.00
328.78	904.00
329.04	863.00
329.31	881.00
329.57	895.00
329.84	899.00
330.10	868.00
330.37	883.00
330.63	912.00
330.89	933.00
331.16	880.00
331.42	890.00
331.69	896.00
331.95	893.00
332.22	890.00
332.48	906.00
332.75	876.00
333.01	874.00
333.28	866.00
333.54	877.00
333.81	893.00
334.07	901.00
334.34	889.00
334.60	881.00
334.86	917.00
335.13	935.00
335.39	899.00
335.66	876.00
335.92	916.00
336.19	907.00
336.45	838.00
336.72	868.00
336.98	861.00
337.24	888.00
337.51	857.00
337.77	869.00
338.04	892.00
338.30	886.00
338.57	829.00
338.83	861.00
339.10	885.00
339.36	919.00
339.63	880.00
339.89	860.00
340.15	875.00
340.42	909.00
340.68	882.00
340.95	879.00
341.21	881.00
341.48	884.00
341.74	830.00
342.00	843.00
342.27	892.00
342.53	907.00
342.80	859.00
343.06	870.00
343.33	883.00
343.59	889.00
343.85	865.00
344.12	880.00
344.38	927.00
344.65	904.00
344.91	868.00
345.18	862.00
345.44	877.00
345.70	879.00
345.97	851.00
346.23	861.00
346.50	887.00
346.76	879.00
347.03	882.00
347.29	891.00
347.55	879.00
347.82	868.00
348.08	853.00
348.35	857.00
348.61	931.00
348.87	917.00
349.14	853.00
349.40	861.00
349.67	894.00
349.93	887.00
350.20	882.00
350.46	885.00
350.72	910.00
350.99	888.00
351.25	879.00
351.52	865.00
351.78	881.00
352.04	899.00
352.31	884.00
352.57	869.00
352.84	873.00
353.10	900.00
353.36	877.00
353.63	864.00
353.89	883.00
354.16	911.00
354.42	892.00
354.68	889.00
354.95	912.00
355.21	908.00
355.48	874.00
355.74	891.00
356.00	913.00
356.27	923.00
356.53	867.00
356.80	871.00
357.06	918.00
357.32	917.00
357.59	886.00
357.85	889.00
358.11	923.00
358.38	901.00
358.64	861.00
358.91	866.00
359.17	885.00
359.43	925.00
359.70	914.00
359.96	893.00
360.22	922.00
360.49	887.00
360.75	871.00
361.02	859.00
361.28	864.00
361.54	887.00
361.81	866.00
362.07	885.00
362.33	881.00
362.60	875.00
362.86	864.00
363.13	886.00
363.39	919.00
363.65	919.00
363.92	842.00
364.18	836.00
364.44	889.00
364.71	905.00
364.97	863.00
365.24	878.00
365.50	893.00
365.76	910.00
366.03	867.00
366.29	881.00
366.55	913.00
366.82	908.00
367.08	843.00
367.34	874.00
367.61	906.00
367.87	901.00
368.13	882.00
368.40	888.00
368.66	941.00
368.93	905.00
369.19	852.00
369.45	850.00
369.72	871.00
369.98	878.00
370.24	870.00
370.51	877.00
370.77	908.00
371.03	900.00
371.30	890.00
371.56	905.00
371.82	921.00
372.09	909.00
372.35	877.00
372.61	877.00
372.88	880.00
373.14	899.00
373.40	877.00
373.67	864.00
373.93	892.00
374.19	898.00
374.46	854.00
374.72	869.00
374.98	889.00
375.25	902.00
375.51	895.00
375.77	912.00
376.04	906.00
376.30	900.00
376.56	858.00
376.83	876.00
377.09	900.00
377.35	900.00
377.62	881.00
377.88	869.00
378.14	871.00
378.41	905.00
378.67	880.00
378.93	869.00
379.20	897.00
379.46	866.00
379.72	845.00
379.99	877.00
380.25	868.00
380.51	867.00
380.77	866.00
381.04	874.00
381.30	906.00
381.56	926.00
381.83	876.00
382.09	870.00
382.35	871.00
382.62	919.00
382.88	884.00
383.14	875.00
383.41	881.00
383.67	872.00
383.93	879.00
384.20	879.00
384.46	898.00
384.72	937.00
384.98	865.00
385.25	883.00
385.51	916.00
385.77	877.00
386.04	861.00
386.30	850.00
386.56	891.00
386.82	935.00
387.09	864.00
387.35	899.00
387.61	962.00
387.88	921.00
388.14	894.00
388.40	875.00
388.67	870.00
388.93	900.00
389.19	888.00
389.45	870.00
389.72	882.00
389.98	920.00
390.24	886.00
390.51	860.00
390.77	910.00
391.03	918.00
391.29	864.00
391.56	877.00
391.82	896.00
392.08	937.00
392.35	884.00
392.61	873.00
392.87	899.00
393.13	916.00
393.40	890.00
393.66	882.00
393.92	893.00
394.18	898.00
394.45	841.00
394.71	852.00
394.97	899.00
395.24	885.00
395.50	862.00
395.76	905.00
396.02	909.00
396.29	891.00
396.55	828.00
396.81	826.00
397.07	861.00
397.34	882.00
397.60	855.00
397.86	856.00
398.12	872.00
398.39	927.00
398.65	892.00
398.91	870.00
399.17	895.00
399.44	869.00
399.70	835.00
399.96	859.00
400.22	872.00
400.49	914.00
400.75	872.00
401.01	849.00
401.27	862.00
401.54	909.00
401.80	867.00
402.06	867.00
402.32	903.00
402.59	882.00
402.85	864.00
403.11	866.00
403.37	860.00
403.64	901.00
403.90	871.00
404.16	885.00
404.42	883.00
404.69	877.00
404.95	880.00
405.21	844.00
405.47	871.00
405.74	911.00
406.00	880.00
406.26	860.00
406.52	883.00
406.79	902.00
407.05	869.00
407.31	874.00
407.57	877.00
407.83	898.00
408.10	830.00
408.36	848.00
408.62	871.00
408.88	873.00
409.15	843.00
409.41	818.00
409.67	832.00
409.93	893.00
410.20	877.00
410.46	867.00
410.72	863.00
410.98	897.00
411.24	875.00
411.51	888.00
411.77	886.00
412.03	904.00
412.29	885.00
412.55	891.00
412.82	877.00
413.08	884.00
413.34	884.00
413.60	891.00
413.87	895.00
414.13	901.00
414.39	846.00
414.65	878.00
414.91	889.00
415.18	853.00
415.44	834.00
415.70	860.00
415.96	875.00
416.22	896.00
416.49	869.00
416.75	876.00
417.01	898.00
417.27	882.00
417.53	866.00
417.80	886.00
418.06	917.00
418.32	921.00
418.58	857.00
418.84	860.00
419.11	891.00
419.37	894.00
419.63	867.00
419.89	858.00
420.15	888.00
420.42	879.00
420.68	858.00
420.94	880.00
421.20	877.00
421.46	890.00
421.72	878.00
421.99	881.00
422.25	897.00
422.51	889.00
422.77	874.00
423.03	897.00
423.30	885.00
423.56	900.00
423.82	915.00
424.08	908.00
424.34	900.00
424.60	900.00
424.87	864.00
425.13	854.00
425.39	871.00
425.65	878.00
425.91	858.00
426.18	890.00
426.44	902.00
426.70	868.00
426.96	830.00
427.22	836.00
427.48	882.00
427.75	869.00
428.01	828.00
428.27	870.00
428.53	899.00
428.79	869.00
429.05	850.00
429.32	868.00
429.58	901.00
429.84	857.00
430.10	868.00
430.36	885.00
430.62	919.00
430.88	888.00
431.15	875.00
431.41	897.00
431.67	891.00
431.93	876.00
432.19	839.00
432.45	860.00
432.72	874.00
432.98	901.00
433.24	896.00
433.50	979.00
433.76	893.00
434.02	887.00
434.28	854.00
434.55	867.00
434.81	891.00
435.07	910.00
435.33	833.00
435.59	858.00
435.85	889.00
436.11	900.00
436.38	840.00
436.64	854.00
436.90	892.00
437.16	867.00
437.42	856.00
437.68	877.00
437.94	888.00
438.21	878.00
438.47	886.00
438.73	905.00
438.99	898.00
439.25	900.00
439.51	849.00
439.77	865.00
440.03	879.00
440.30	891.00
440.56	870.00
440.82	889.00
441.08	919.00
441.34	899.00
441.60	846.00
441.86	876.00
442.12	886.00
442.39	892.00
442.65	867.00
442.91	872.00
443.17	880.00
443.43	906.00
443.69	892.00
443.95	853.00
444.21	874.00
444.47	889.00
444.74	848.00
445.00	883.00
445.26	881.00
445.52	878.00
445.78	863.00
446.04	882.00
446.30	922.00
446.56	900.00
446.82	859.00
447.09	866.00
447.35	893.00
447.61	890.00
447.87	875.00
448.13	878.00
448.39	930.00
448.65	922.00
448.91	865.00
449.17	852.00
449.43	856.00
449.70	872.00
449.96	845.00
450.22	862.00
450.48	889.00
450.74	929.00
451.00	878.00
451.26	863.00
451.52	880.00
451.78	889.00
452.04	859.00
452.31	883.00
452.57	896.00
452.83	877.00
453.09	849.00
453.35	861.00
453.61	887.00
453.87	899.00
454.13	882.00
454.39	878.00
454.65	933.00
454.91	932.00
455.17	847.00
455.44	875.00
455.70	897.00
455.96	889.00
456.22	860.00
456.48	849.00
456.74	874.00
457.00	855.00
457.26	807.00
457.52	877.00
457.78	887.00
458.04	902.00
458.30	862.00
458.56	867.00
458.82	876.00
459.09	863.00
459.35	827.00
459.61	850.00
459.87	893.00
460.13	918.00
460.39	856.00
460.65	853.00
460.91	882.00
461.17	847.00
461.43	833.00
461.69	848.00
461.95	900.00
462.21	860.00
462.47	855.00
462.73	901.00
462.99	907.00
463.26	891.00
463.52	832.00
463.78	849.00
464.04	852.00
464.30	862.00
464.56	839.00
464.82	860.00
465.08	898.00
465.34	912.00
465.60	874.00
465.86	867.00
466.12	882.00
466.38	870.00
466.64	857.00
466.90	878.00
467.16	893.00
467.42	890.00
467.68	851.00
467.94	870.00
468.20	911.00
468.46	893.00
468.72	853.00
468.98	867.00
469.25	887.00
469.51	868.00
469.77	877.00
470.03	869.00
470.29	897.00
470.55	889.00
470.81	869.00
471.07	869.00
471.33	881.00
471.59	916.00
471.85	872.00
472.11	877.00
472.37	893.00
472.63	870.00
472.89	884.00
473.15	868.00
473.41	879.00
473.67	869.00
473.93	822.00
474.19	849.00
474.45	848.00
474.71	851.00
474.97	846.00
475.23	854.00
475.49	871.00
475.75	856.00
476.01	861.00
476.27	901.00
476.53	919.00
476.79	911.00
477.05	874.00
477.31	858.00
477.57	895.00
477.83	889.00
478.09	845.00
478.35	877.00
478.61	912.00
478.87	877.00
479.13	833.00
479.39	879.00
479.65	907.00
479.91	901.00
480.17	862.00
480.43	883.00
480.69	870.00
480.95	902.00
481.21	853.00
481.47	856.00
481.73	876.00
481.99	870.00
482.25	846.00
482.51	838.00
482.77	884.00
483.03	894.00
483.29	870.00
483.55	850.00
483.81	888.00
484.07	888.00
484.33	863.00
484.59	854.00
484.85	902.00
485.11	889.00
485.37	860.00
485.63	857.00
485.89	888.00
486.15	875.00
486.41	861.00
486.67	861.00
486.93	899.00
487.19	882.00
487.45	866.00
487.71	859.00
487.97	897.00
488.23	895.00
488.49	840.00
488.75	848.00
489.01	880.00
489.27	919.00
489.53	863.00
489.79	835.00
490.05	854.00
490.31	890.00
490.57	881.00
490.83	914.00
491.08	889.00
491.34	863.00
491.60	851.00
491.86	885.00
492.12	911.00
492.38	919.00
492.64	861.00
492.90	853.00
493.16	885.00
493.42	848.00
493.68	842.00
493.94	876.00
494.20	864.00
494.46	878.00
494.72	857.00
494.98	835.00
495.24	845.00
495.50	882.00
495.76	874.00
496.02	877.00
496.28	911.00
496.54	916.00
496.80	870.00
497.05	845.00
497.31	885.00
497.57	874.00
497.83	859.00
498.09	883.00
498.35	901.00
498.61	891.00
498.87	867.00
499.13	861.00
499.39	880.00
499.65	889.00
499.91	880.00
500.17	859.00
500.43	918.00
500.69	951.00
500.95	855.00
501.20	883.00
501.46	912.00
501.72	905.00
501.98	880.00
502.24	895.00
502.50	922.00
502.76	882.00
503.02	870.00
503.28	876.00
503.54	933.00
503.80	926.00
504.06	877.00
504.32	880.00
504.58	912.00
504.83	884.00
505.09	850.00
505.35	873.00
505.61	860.00
505.87	871.00
506.13	874.00
506.39	858.00
506.65	910.00
506.91	947.00
507.17	877.00
507.43	863.00
507.68	862.00
507.94	893.00
508.20	850.00
508.46	848.00
508.72	907.00
508.98	910.00
509.24	861.00
509.50	896.00
509.76	868.00
510.02	881.00
510.28	842.00
510.53	860.00
510.79	898.00
511.05	896.00
511.31	864.00
511.57	871.00
511.83	885.00
512.09	891.00
512.35	859.00
512.61	871.00
512.87	878.00
513.12	893.00
513.38	835.00
513.64	866.00
513.90	908.00
514.16	907.00
514.42	872.00
514.68	869.00
514.94	893.00
515.20	906.00
515.45	855.00
515.71	846.00
515.97	865.00
516.23	883.00
516.49	862.00
516.75	860.00
517.01	888.00
517.27	861.00
517.53	845.00
517.78	873.00
518.04	887.00
518.30	871.00
518.56	836.00
518.82	893.00
519.08	905.00
519.34	852.00
519.60	846.00
519.85	857.00
520.11	875.00
520.37	885.00
520.63	874.00
520.89	890.00
521.15	882.00
521.41	865.00
521.66	859.00
521.92	868.00
522.18	898.00
522.44	902.00
522.70	863.00
522.96	845.00
523.22	871.00
523.48	871.00
523.73	862.00
523.99	861.00
524.25	906.00
524.51	888.00
524.77	859.00
525.03	866.00
525.29	892.00
525.54	898.00
525.80	854.00
526.06	869.00
526.32	876.00
526.58	877.00
526.84	855.00
527.09	852.00
527.35	865.00
527.61	878.00
527.87	865.00
528.13	896.00
528.39	894.00
528.65	882.00
528.90	830.00
529.16	848.00
529.42	861.00
529.68	859.00
529.94	841.00
530.20	868.00
530.45	840.00
530.71	861.00
530.97	828.00
531.23	850.00
531.49	873.00
531.75	873.00
532.00	861.00
532.26	862.00
532.52	898.00
532.78	879.00
533.04	848.00
533.30	870.00
533.55	885.00
533.81	890.00
534.07	840.00
534.33	858.00
534.59	890.00
534.85	876.00
535.10	844.00
535.36	847.00
535.62	878.00
535.88	886.00
