SpectraSuite Data File
++++++++++++++++++++++++++++++++++++
Date: Fri Dec 06 16:15:59 CET 2024
User: student
Dark Spectrum Present: Yes
Reference Spectrum Present: Yes
Number of Sampled Component Spectra: 1
Spectrometers: HR4C155
Integration Time (usec): 100000 (HR4C155)
Spectra Averaged: 1 (HR4C155)
Boxcar Smoothing: 0 (HR4C155)
Correct for Electrical Dark: No (HR4C155)
Strobe/Lamp Enabled: No (HR4C155)
Correct for Detector Non-linearity: No (HR4C155)
Correct for Stray Light: No (HR4C155)
Number of Pixels in Processed Spectrum: 3648
>>>>>Begin Processed Spectral Data<<<<<
195.39	688.00
195.66	688.00
195.93	688.00
196.20	670.00
196.46	703.00
196.73	833.00
197.00	843.00
197.27	848.00
197.54	860.00
197.81	866.00
198.08	865.00
198.35	882.00
198.61	896.00
198.88	872.00
199.15	874.00
199.42	884.00
199.69	901.00
199.96	888.00
200.23	885.00
200.49	904.00
200.76	921.00
201.03	888.00
201.30	857.00
201.57	917.00
201.84	936.00
202.11	897.00
202.38	927.00
202.64	930.00
202.91	939.00
203.18	882.00
203.45	937.00
203.72	1020.00
203.99	951.00
204.25	920.00
204.52	926.00
204.79	949.00
205.06	937.00
205.33	887.00
205.60	893.00
205.87	939.00
206.13	939.00
206.40	919.00
206.67	917.00
206.94	928.00
207.21	930.00
207.48	917.00
207.75	907.00
208.01	941.00
208.28	933.00
208.55	894.00
208.82	910.00
209.09	915.00
209.36	951.00
209.62	923.00
209.89	931.00
210.16	937.00
210.43	968.00
210.70	895.00
210.97	895.00
211.23	925.00
211.50	948.00
211.77	914.00
212.04	929.00
212.31	936.00
212.58	967.00
212.84	905.00
213.11	921.00
213.38	896.00
213.65	915.00
213.92	893.00
214.18	913.00
214.45	971.00
214.72	949.00
214.99	897.00
215.26	920.00
215.53	909.00
215.79	942.00
216.06	931.00
216.33	923.00
216.60	913.00
216.87	947.00
217.13	880.00
217.40	899.00
217.67	939.00
217.94	976.00
218.21	916.00
218.48	962.00
218.74	979.00
219.01	947.00
219.28	882.00
219.55	895.00
219.82	936.00
220.08	950.00
220.35	904.00
220.62	892.00
220.89	964.00
221.16	999.00
221.42	933.00
221.69	919.00
221.96	939.00
222.23	944.00
222.50	946.00
222.76	962.00
223.03	947.00
223.30	926.00
223.57	887.00
223.84	876.00
224.10	911.00
224.37	941.00
224.64	880.00
224.91	911.00
225.18	943.00
225.44	952.00
225.71	906.00
225.98	922.00
226.25	949.00
226.51	957.00
226.78	909.00
227.05	909.00
227.32	930.00
227.59	935.00
227.85	937.00
228.12	920.00
228.39	948.00
228.66	951.00
228.92	960.00
229.19	932.00
229.46	942.00
229.73	909.00
230.00	891.00
230.26	930.00
230.53	964.00
230.80	923.00
231.07	856.00
231.33	894.00
231.60	951.00
231.87	964.00
232.14	901.00
232.41	958.00
232.67	957.00
232.94	957.00
233.21	892.00
233.48	911.00
233.74	916.00
234.01	918.00
234.28	899.00
234.55	908.00
234.81	905.00
235.08	953.00
235.35	906.00
235.62	898.00
235.88	905.00
236.15	942.00
236.42	911.00
236.69	919.00
236.95	972.00
237.22	940.00
237.49	905.00
237.76	892.00
238.02	941.00
238.29	963.00
238.56	913.00
238.83	898.00
239.09	913.00
239.36	964.00
239.63	915.00
239.90	919.00
240.16	957.00
240.43	986.00
240.70	902.00
240.97	922.00
241.23	935.00
241.50	944.00
241.77	911.00
242.04	903.00
242.30	895.00
242.57	923.00
242.84	885.00
243.11	900.00
243.37	900.00
243.64	965.00
243.91	912.00
244.18	904.00
244.44	877.00
244.71	902.00
244.98	901.00
245.24	909.00
245.51	936.00
245.78	947.00
246.05	889.00
246.31	905.00
246.58	939.00
246.85	931.00
247.12	913.00
247.38	938.00
247.65	945.00
247.92	954.00
248.18	903.00
248.45	917.00
248.72	923.00
248.99	944.00
249.25	907.00
249.52	918.00
249.79	944.00
250.05	938.00
250.32	904.00
250.59	889.00
250.86	913.00
251.12	919.00
251.39	891.00
251.66	922.00
251.92	929.00
252.19	949.00
252.46	905.00
252.73	936.00
252.99	947.00
253.26	968.00
253.53	894.00
253.79	921.00
254.06	926.00
254.33	912.00
254.60	883.00
254.86	903.00
255.13	941.00
255.40	963.00
255.66	899.00
255.93	930.00
256.20	949.00
256.46	965.00
256.73	901.00
257.00	920.00
257.26	938.00
257.53	941.00
257.80	931.00
258.07	928.00
258.33	961.00
258.60	940.00
258.87	878.00
259.13	910.00
259.40	915.00
259.67	945.00
259.93	921.00
260.20	925.00
260.47	941.00
260.73	902.00
261.00	895.00
261.27	919.00
261.53	934.00
261.80	926.00
262.07	882.00
262.34	919.00
262.60	887.00
262.87	925.00
263.14	893.00
263.40	939.00
263.67	919.00
263.94	914.00
264.20	888.00
264.47	881.00
264.74	907.00
265.00	923.00
265.27	892.00
265.54	897.00
265.80	929.00
266.07	935.00
266.34	877.00
266.60	897.00
266.87	930.00
267.14	948.00
267.40	898.00
267.67	893.00
267.94	937.00
268.20	932.00
268.47	892.00
268.74	907.00
269.00	928.00
269.27	900.00
269.54	873.00
269.80	886.00
270.07	946.00
270.33	913.00
270.60	899.00
270.87	926.00
271.13	907.00
271.40	929.00
271.67	873.00
271.93	875.00
272.20	931.00
272.47	909.00
272.73	862.00
273.00	912.00
273.27	923.00
273.53	958.00
273.80	895.00
274.07	870.00
274.33	921.00
274.60	943.00
274.86	905.00
275.13	899.00
275.40	904.00
275.66	944.00
275.93	899.00
276.20	894.00
276.46	917.00
276.73	900.00
277.00	892.00
277.26	906.00
277.53	948.00
277.79	938.00
278.06	883.00
278.33	935.00
278.59	925.00
278.86	907.00
279.13	909.00
279.39	924.00
279.66	939.00
279.93	954.00
280.19	901.00
280.46	912.00
280.72	903.00
280.99	934.00
281.26	897.00
281.52	894.00
281.79	933.00
282.05	936.00
282.32	880.00
282.59	900.00
282.85	940.00
283.12	922.00
283.39	901.00
283.65	921.00
283.92	913.00
284.18	945.00
284.45	918.00
284.72	925.00
284.98	908.00
285.25	919.00
285.51	929.00
285.78	916.00
286.05	900.00
286.31	936.00
286.58	877.00
286.84	884.00
287.11	914.00
287.38	941.00
287.64	913.00
287.91	884.00
288.17	927.00
288.44	925.00
288.71	865.00
288.97	902.00
289.24	945.00
289.50	912.00
289.77	901.00
290.04	890.00
290.30	909.00
290.57	947.00
290.83	878.00
291.10	889.00
291.37	937.00
291.63	925.00
291.90	937.00
292.16	917.00
292.43	934.00
292.70	909.00
292.96	862.00
293.23	887.00
293.49	890.00
293.76	919.00
294.02	898.00
294.29	902.00
294.56	922.00
294.82	935.00
295.09	895.00
295.35	880.00
295.62	933.00
295.89	939.00
296.15	886.00
296.42	877.00
296.68	913.00
296.95	924.00
297.21	910.00
297.48	903.00
297.75	923.00
298.01	955.00
298.28	898.00
298.54	919.00
298.81	926.00
299.07	938.00
299.34	867.00
299.61	897.00
299.87	943.00
300.14	919.00
300.40	916.00
300.67	913.00
300.93	937.00
301.20	967.00
301.46	877.00
301.73	898.00
302.00	926.00
302.26	908.00
302.53	912.00
302.79	901.00
303.06	935.00
303.32	978.00
303.59	874.00
303.85	883.00
304.12	913.00
304.39	925.00
304.65	896.00
304.92	902.00
305.18	926.00
305.45	945.00
305.71	915.00
305.98	931.00
306.24	925.00
306.51	915.00
306.77	908.00
307.04	893.00
307.31	928.00
307.57	943.00
307.84	885.00
308.10	911.00
308.37	904.00
308.63	922.00
308.90	885.00
309.16	886.00
309.43	924.00
309.69	916.00
309.96	899.00
310.22	894.00
310.49	918.00
310.76	921.00
311.02	865.00
311.29	898.00
311.55	917.00
311.82	922.00
312.08	911.00
312.35	903.00
312.61	942.00
312.88	927.00
313.14	891.00
313.41	886.00
313.67	898.00
313.94	930.00
314.20	908.00
314.47	924.00
314.73	894.00
315.00	909.00
315.26	872.00
315.53	915.00
315.79	935.00
316.06	933.00
316.32	893.00
316.59	942.00
316.85	924.00
317.12	926.00
317.39	890.00
317.65	909.00
317.92	918.00
318.18	927.00
318.45	890.00
318.71	946.00
318.98	953.00
319.24	923.00
319.51	906.00
319.77	909.00
320.04	924.00
320.30	926.00
320.57	900.00
320.83	898.00
321.10	890.00
321.36	892.00
321.63	865.00
321.89	886.00
322.16	945.00
322.42	920.00
322.69	878.00
322.95	877.00
323.22	931.00
323.48	946.00
323.75	883.00
324.01	913.00
324.28	921.00
324.54	932.00
324.80	896.00
325.07	916.00
325.33	930.00
325.60	928.00
325.86	883.00
326.13	892.00
326.39	905.00
326.66	903.00
326.92	846.00
327.19	875.00
327.45	946.00
327.72	960.00
327.98	895.00
328.25	900.00
328.51	931.00
328.78	931.00
329.04	887.00
329.31	916.00
329.57	908.00
329.84	911.00
330.10	905.00
330.37	903.00
330.63	946.00
330.89	966.00
331.16	905.00
331.42	921.00
331.69	950.00
331.95	938.00
332.22	916.00
332.48	941.00
332.75	920.00
333.01	893.00
333.28	886.00
333.54	899.00
333.81	929.00
334.07	949.00
334.34	909.00
334.60	921.00
334.86	966.00
335.13	955.00
335.39	905.00
335.66	901.00
335.92	935.00
336.19	920.00
336.45	866.00
336.72	888.00
336.98	913.00
337.24	923.00
337.51	878.00
337.77	895.00
338.04	911.00
338.30	916.00
338.57	884.00
338.83	918.00
339.10	929.00
339.36	934.00
339.63	900.00
339.89	878.00
340.15	901.00
340.42	934.00
340.68	924.00
340.95	915.00
341.21	920.00
341.48	926.00
341.74	869.00
342.00	887.00
342.27	923.00
342.53	937.00
342.80	877.00
343.06	885.00
343.33	908.00
343.59	924.00
343.85	894.00
344.12	918.00
344.38	974.00
344.65	951.00
344.91	901.00
345.18	902.00
345.44	901.00
345.70	898.00
345.97	865.00
346.23	882.00
346.50	924.00
346.76	921.00
347.03	889.00
347.29	909.00
347.55	891.00
347.82	919.00
348.08	871.00
348.35	880.00
348.61	973.00
348.87	947.00
349.14	888.00
349.40	874.00
349.67	943.00
349.93	922.00
350.20	897.00
350.46	914.00
350.72	941.00
350.99	928.00
351.25	903.00
351.52	905.00
351.78	900.00
352.04	918.00
352.31	893.00
352.57	901.00
352.84	902.00
353.10	926.00
353.36	911.00
353.63	904.00
353.89	911.00
354.16	928.00
354.42	902.00
354.68	916.00
354.95	948.00
355.21	921.00
355.48	876.00
355.74	919.00
356.00	957.00
356.27	964.00
356.53	895.00
356.80	888.00
357.06	929.00
357.32	934.00
357.59	926.00
357.85	932.00
358.11	951.00
358.38	921.00
358.64	906.00
358.91	919.00
359.17	925.00
359.43	937.00
359.70	922.00
359.96	914.00
360.22	931.00
360.49	908.00
360.75	900.00
361.02	880.00
361.28	906.00
361.54	911.00
361.81	875.00
362.07	902.00
362.33	883.00
362.60	900.00
362.86	888.00
363.13	919.00
363.39	945.00
363.65	930.00
363.92	843.00
364.18	873.00
364.44	915.00
364.71	937.00
364.97	893.00
365.24	902.00
365.50	941.00
365.76	959.00
366.03	896.00
366.29	913.00
366.55	935.00
366.82	906.00
367.08	872.00
367.34	896.00
367.61	914.00
367.87	922.00
368.13	910.00
368.40	902.00
368.66	950.00
368.93	942.00
369.19	866.00
369.45	884.00
369.72	920.00
369.98	903.00
370.24	875.00
370.51	887.00
370.77	919.00
371.03	926.00
371.30	894.00
371.56	925.00
371.82	935.00
372.09	925.00
372.35	903.00
372.61	916.00
372.88	916.00
373.14	917.00
373.40	886.00
373.67	889.00
373.93	924.00
374.19	945.00
374.46	882.00
374.72	867.00
374.98	917.00
375.25	923.00
375.51	902.00
375.77	925.00
376.04	947.00
376.30	937.00
376.56	891.00
376.83	893.00
377.09	922.00
377.35	938.00
377.62	903.00
377.88	905.00
378.14	903.00
378.41	927.00
378.67	892.00
378.93	904.00
379.20	919.00
379.46	903.00
379.72	891.00
379.99	881.00
380.25	909.00
380.51	898.00
380.77	892.00
381.04	903.00
381.30	921.00
381.56	942.00
381.83	921.00
382.09	896.00
382.35	890.00
382.62	933.00
382.88	922.00
383.14	918.00
383.41	905.00
383.67	908.00
383.93	915.00
384.20	900.00
384.46	914.00
384.72	934.00
384.98	890.00
385.25	934.00
385.51	929.00
385.77	934.00
386.04	877.00
386.30	865.00
386.56	926.00
386.82	981.00
387.09	904.00
387.35	925.00
387.61	1006.00
387.88	935.00
388.14	910.00
388.40	895.00
388.67	903.00
388.93	911.00
389.19	902.00
389.45	899.00
389.72	902.00
389.98	931.00
390.24	905.00
390.51	884.00
390.77	915.00
391.03	946.00
391.29	898.00
391.56	900.00
391.82	909.00
392.08	953.00
392.35	919.00
392.61	894.00
392.87	928.00
393.13	935.00
393.40	884.00
393.66	887.00
393.92	931.00
394.18	932.00
394.45	881.00
394.71	879.00
394.97	903.00
395.24	888.00
395.50	889.00
395.76	938.00
396.02	940.00
396.29	921.00
396.55	872.00
396.81	833.00
397.07	897.00
397.34	890.00
397.60	862.00
397.86	862.00
398.12	899.00
398.39	940.00
398.65	896.00
398.91	897.00
399.17	915.00
399.44	871.00
399.70	835.00
399.96	875.00
400.22	897.00
400.49	948.00
400.75	905.00
401.01	893.00
401.27	892.00
401.54	920.00
401.80	883.00
402.06	871.00
402.32	918.00
402.59	904.00
402.85	881.00
403.11	903.00
403.37	882.00
403.64	929.00
403.90	882.00
404.16	898.00
404.42	898.00
404.69	890.00
404.95	876.00
405.21	874.00
405.47	902.00
405.74	921.00
406.00	881.00
406.26	876.00
406.52	908.00
406.79	934.00
407.05	883.00
407.31	899.00
407.57	891.00
407.83	905.00
408.10	854.00
408.36	878.00
408.62	907.00
408.88	912.00
409.15	895.00
409.41	865.00
409.67	884.00
409.93	920.00
410.20	910.00
410.46	898.00
410.72	881.00
410.98	913.00
411.24	886.00
411.51	897.00
411.77	892.00
412.03	903.00
412.29	902.00
412.55	925.00
412.82	906.00
413.08	921.00
413.34	918.00
413.60	915.00
413.87	910.00
414.13	905.00
414.39	867.00
414.65	893.00
414.91	912.00
415.18	882.00
415.44	858.00
415.70	872.00
415.96	897.00
416.22	911.00
416.49	885.00
416.75	882.00
417.01	907.00
417.27	930.00
417.53	908.00
417.80	912.00
418.06	913.00
418.32	917.00
418.58	888.00
418.84	867.00
419.11	902.00
419.37	925.00
419.63	880.00
419.89	878.00
420.15	912.00
420.42	912.00
420.68	891.00
420.94	896.00
421.20	898.00
421.46	915.00
421.72	911.00
421.99	913.00
422.25	918.00
422.51	930.00
422.77	898.00
423.03	905.00
423.30	896.00
423.56	922.00
423.82	918.00
424.08	910.00
424.34	926.00
424.60	901.00
424.87	893.00
425.13	864.00
425.39	898.00
425.65	895.00
425.91	867.00
426.18	905.00
426.44	915.00
426.70	898.00
426.96	854.00
427.22	876.00
427.48	891.00
427.75	894.00
428.01	854.00
428.27	877.00
428.53	927.00
428.79	893.00
429.05	882.00
429.32	898.00
429.58	952.00
429.84	903.00
430.10	907.00
430.36	911.00
430.62	940.00
430.88	923.00
431.15	899.00
431.41	919.00
431.67	914.00
431.93	901.00
432.19	868.00
432.45	872.00
432.72	913.00
432.98	915.00
433.24	925.00
433.50	982.00
433.76	911.00
434.02	898.00
434.28	876.00
434.55	882.00
434.81	907.00
435.07	935.00
435.33	881.00
435.59	862.00
435.85	895.00
436.11	924.00
436.38	869.00
436.64	881.00
436.90	900.00
437.16	900.00
437.42	871.00
437.68	899.00
437.94	919.00
438.21	926.00
438.47	910.00
438.73	902.00
438.99	909.00
439.25	913.00
439.51	878.00
439.77	898.00
440.03	901.00
440.30	921.00
440.56	884.00
440.82	923.00
441.08	940.00
441.34	918.00
441.60	877.00
441.86	904.00
442.12	916.00
442.39	910.00
442.65	894.00
442.91	873.00
443.17	901.00
443.43	919.00
443.69	900.00
443.95	859.00
444.21	882.00
444.47	918.00
444.74	886.00
445.00	890.00
445.26	883.00
445.52	924.00
445.78	876.00
446.04	882.00
446.30	944.00
446.56	936.00
446.82	880.00
447.09	883.00
447.35	906.00
447.61	915.00
447.87	897.00
448.13	874.00
448.39	948.00
448.65	940.00
448.91	867.00
449.17	864.00
449.43	898.00
449.70	922.00
449.96	860.00
450.22	867.00
450.48	912.00
450.74	943.00
451.00	894.00
451.26	870.00
451.52	899.00
451.78	892.00
452.04	882.00
452.31	912.00
452.57	919.00
452.83	902.00
453.09	868.00
453.35	885.00
453.61	908.00
453.87	905.00
454.13	909.00
454.39	930.00
454.65	968.00
454.91	944.00
455.17	879.00
455.44	897.00
455.70	911.00
455.96	919.00
456.22	869.00
456.48	903.00
456.74	918.00
457.00	869.00
457.26	840.00
457.52	884.00
457.78	915.00
458.04	910.00
458.30	860.00
458.56	885.00
458.82	888.00
459.09	883.00
459.35	826.00
459.61	862.00
459.87	923.00
460.13	926.00
460.39	885.00
460.65	883.00
460.91	925.00
461.17	900.00
461.43	867.00
461.69	867.00
461.95	904.00
462.21	905.00
462.47	904.00
462.73	931.00
462.99	940.00
463.26	926.00
463.52	882.00
463.78	888.00
464.04	898.00
464.30	901.00
464.56	854.00
464.82	888.00
465.08	927.00
465.34	951.00
465.60	909.00
465.86	894.00
466.12	888.00
466.38	902.00
466.64	868.00
466.90	883.00
467.16	891.00
467.42	913.00
467.68	861.00
467.94	885.00
468.20	933.00
468.46	923.00
468.72	883.00
468.98	907.00
469.25	911.00
469.51	864.00
469.77	901.00
470.03	902.00
470.29	920.00
470.55	925.00
470.81	910.00
471.07	893.00
471.33	915.00
471.59	917.00
471.85	889.00
472.11	899.00
472.37	908.00
472.63	892.00
472.89	903.00
473.15	886.00
473.41	914.00
473.67	899.00
473.93	871.00
474.19	872.00
474.45	880.00
474.71	900.00
474.97	867.00
475.23	863.00
475.49	889.00
475.75	904.00
476.01	894.00
476.27	916.00
476.53	924.00
476.79	917.00
477.05	875.00
477.31	898.00
477.57	924.00
477.83	909.00
478.09	857.00
478.35	887.00
478.61	922.00
478.87	914.00
479.13	875.00
479.39	891.00
479.65	932.00
479.91	923.00
480.17	905.00
480.43	898.00
480.69	894.00
480.95	918.00
481.21	886.00
481.47	893.00
481.73	891.00
481.99	890.00
482.25	851.00
482.51	858.00
482.77	933.00
483.03	919.00
483.29	893.00
483.55	898.00
483.81	918.00
484.07	924.00
484.33	870.00
484.59	887.00
484.85	923.00
485.11	916.00
485.37	885.00
485.63	882.00
485.89	882.00
486.15	884.00
486.41	862.00
486.67	881.00
486.93	903.00
487.19	883.00
487.45	861.00
487.71	859.00
487.97	910.00
488.23	916.00
488.49	865.00
488.75	869.00
489.01	916.00
489.27	943.00
489.53	881.00
489.79	868.00
490.05	893.00
490.31	927.00
490.57	919.00
490.83	943.00
491.08	903.00
491.34	883.00
491.60	869.00
491.86	898.00
492.12	926.00
492.38	932.00
492.64	870.00
492.90	872.00
493.16	910.00
493.42	873.00
493.68	863.00
493.94	903.00
494.20	900.00
494.46	918.00
494.72	874.00
494.98	882.00
495.24	896.00
495.50	893.00
495.76	901.00
496.02	905.00
496.28	921.00
496.54	917.00
496.80	885.00
497.05	857.00
497.31	898.00
497.57	921.00
497.83	889.00
498.09	901.00
498.35	938.00
498.61	911.00
498.87	896.00
499.13	887.00
499.39	913.00
499.65	889.00
499.91	893.00
500.17	876.00
500.43	968.00
500.69	1000.00
500.95	886.00
501.20	908.00
501.46	924.00
501.72	930.00
501.98	926.00
502.24	907.00
502.50	918.00
502.76	901.00
503.02	885.00
503.28	910.00
503.54	950.00
503.80	967.00
504.06	922.00
504.32	918.00
504.58	933.00
504.83	900.00
505.09	871.00
505.35	880.00
505.61	874.00
505.87	905.00
506.13	890.00
506.39	876.00
506.65	932.00
506.91	970.00
507.17	887.00
507.43	873.00
507.68	899.00
507.94	923.00
508.20	863.00
508.46	865.00
508.72	920.00
508.98	940.00
509.24	869.00
509.50	897.00
509.76	907.00
510.02	908.00
510.28	870.00
510.53	875.00
510.79	912.00
511.05	917.00
511.31	878.00
511.57	885.00
511.83	904.00
512.09	924.00
512.35	877.00
512.61	890.00
512.87	895.00
513.12	914.00
513.38	865.00
513.64	890.00
513.90	913.00
514.16	952.00
514.42	907.00
514.68	899.00
514.94	923.00
515.20	928.00
515.45	882.00
515.71	878.00
515.97	883.00
516.23	918.00
516.49	879.00
516.75	890.00
517.01	902.00
517.27	883.00
517.53	868.00
517.78	873.00
518.04	902.00
518.30	890.00
518.56	874.00
518.82	908.00
519.08	943.00
519.34	884.00
519.60	881.00
519.85	903.00
520.11	906.00
520.37	893.00
520.63	882.00
520.89	906.00
521.15	902.00
521.41	905.00
521.66	866.00
521.92	877.00
522.18	932.00
522.44	941.00
522.70	890.00
522.96	880.00
523.22	910.00
523.48	902.00
523.73	903.00
523.99	885.00
524.25	939.00
524.51	912.00
524.77	862.00
525.03	875.00
525.29	907.00
525.54	922.00
525.80	885.00
526.06	881.00
526.32	879.00
526.58	899.00
526.84	883.00
527.09	886.00
527.35	876.00
527.61	885.00
527.87	874.00
528.13	897.00
528.39	891.00
528.65	892.00
528.90	855.00
529.16	881.00
529.42	871.00
529.68	889.00
529.94	865.00
530.20	872.00
530.45	885.00
530.71	908.00
530.97	858.00
531.23	882.00
531.49	916.00
531.75	904.00
532.00	885.00
532.26	877.00
532.52	907.00
532.78	902.00
533.04	884.00
533.30	883.00
533.55	900.00
533.81	908.00
534.07	864.00
534.33	884.00
534.59	904.00
534.85	903.00
535.10	863.00
535.36	861.00
535.62	910.00
535.88	883.00
