SpectraSuite Data File
++++++++++++++++++++++++++++++++++++
Date: Fri Dec 06 16:07:00 CET 2024
User: student
Dark Spectrum Present: No
Reference Spectrum Present: No
Number of Sampled Component Spectra: 1
Spectrometers: HR4C155
Integration Time (usec): 100000 (HR4C155)
Spectra Averaged: 1 (HR4C155)
Boxcar Smoothing: 0 (HR4C155)
Correct for Electrical Dark: No (HR4C155)
Strobe/Lamp Enabled: No (HR4C155)
Correct for Detector Non-linearity: No (HR4C155)
Correct for Stray Light: No (HR4C155)
Number of Pixels in Processed Spectrum: 3648
>>>>>Begin Processed Spectral Data<<<<<
195.39	719.00
195.66	719.00
195.93	719.00
196.20	679.00
196.46	715.00
196.73	833.00
197.00	849.00
197.27	842.00
197.54	867.00
197.81	862.00
198.08	852.00
198.35	878.00
198.61	898.00
198.88	864.00
199.15	865.00
199.42	882.00
199.69	904.00
199.96	877.00
200.23	886.00
200.49	874.00
200.76	898.00
201.03	894.00
201.30	888.00
201.57	951.00
201.84	946.00
202.11	897.00
202.38	917.00
202.64	922.00
202.91	954.00
203.18	877.00
203.45	930.00
203.72	1004.00
203.99	938.00
204.25	931.00
204.52	924.00
204.79	945.00
205.06	949.00
205.33	885.00
205.60	906.00
205.87	941.00
206.13	953.00
206.40	907.00
206.67	891.00
206.94	930.00
207.21	936.00
207.48	910.00
207.75	892.00
208.01	942.00
208.28	932.00
208.55	879.00
208.82	908.00
209.09	907.00
209.36	965.00
209.62	935.00
209.89	946.00
210.16	949.00
210.43	970.00
210.70	901.00
210.97	917.00
211.23	955.00
211.50	954.00
211.77	911.00
212.04	925.00
212.31	919.00
212.58	939.00
212.84	905.00
213.11	916.00
213.38	895.00
213.65	937.00
213.92	912.00
214.18	923.00
214.45	956.00
214.72	958.00
214.99	903.00
215.26	917.00
215.53	920.00
215.79	934.00
216.06	934.00
216.33	906.00
216.60	908.00
216.87	941.00
217.13	864.00
217.40	892.00
217.67	928.00
217.94	961.00
218.21	897.00
218.48	939.00
218.74	981.00
219.01	949.00
219.28	868.00
219.55	889.00
219.82	930.00
220.08	934.00
220.35	908.00
220.62	883.00
220.89	941.00
221.16	985.00
221.42	924.00
221.69	922.00
221.96	939.00
222.23	972.00
222.50	941.00
222.76	940.00
223.03	916.00
223.30	904.00
223.57	887.00
223.84	906.00
224.10	907.00
224.37	926.00
224.64	890.00
224.91	913.00
225.18	950.00
225.44	958.00
225.71	914.00
225.98	944.00
226.25	964.00
226.51	961.00
226.78	913.00
227.05	915.00
227.32	927.00
227.59	940.00
227.85	940.00
228.12	917.00
228.39	952.00
228.66	956.00
228.92	958.00
229.19	938.00
229.46	947.00
229.73	915.00
230.00	910.00
230.26	922.00
230.53	945.00
230.80	945.00
231.07	882.00
231.33	893.00
231.60	939.00
231.87	947.00
232.14	900.00
232.41	922.00
232.67	938.00
232.94	945.00
233.21	905.00
233.48	935.00
233.74	934.00
234.01	914.00
234.28	876.00
234.55	919.00
234.81	922.00
235.08	962.00
235.35	911.00
235.62	905.00
235.88	938.00
236.15	946.00
236.42	914.00
236.69	925.00
236.95	950.00
237.22	928.00
237.49	905.00
237.76	890.00
238.02	955.00
238.29	956.00
238.56	904.00
238.83	883.00
239.09	902.00
239.36	953.00
239.63	897.00
239.90	905.00
240.16	961.00
240.43	999.00
240.70	932.00
240.97	915.00
241.23	910.00
241.50	934.00
241.77	921.00
242.04	906.00
242.30	867.00
242.57	912.00
242.84	892.00
243.11	902.00
243.37	890.00
243.64	963.00
243.91	907.00
244.18	894.00
244.44	882.00
244.71	907.00
244.98	904.00
245.24	908.00
245.51	928.00
245.78	956.00
246.05	895.00
246.31	913.00
246.58	930.00
246.85	913.00
247.12	890.00
247.38	925.00
247.65	924.00
247.92	943.00
248.18	920.00
248.45	920.00
248.72	935.00
248.99	947.00
249.25	891.00
249.52	907.00
249.79	936.00
250.05	947.00
250.32	913.00
250.59	908.00
250.86	917.00
251.12	916.00
251.39	883.00
251.66	915.00
251.92	944.00
252.19	944.00
252.46	886.00
252.73	937.00
252.99	956.00
253.26	954.00
253.53	906.00
253.79	908.00
254.06	915.00
254.33	899.00
254.60	886.00
254.86	882.00
255.13	927.00
255.40	954.00
255.66	909.00
255.93	939.00
256.20	949.00
256.46	939.00
256.73	905.00
257.00	914.00
257.26	935.00
257.53	947.00
257.80	932.00
258.07	933.00
258.33	996.00
258.60	948.00
258.87	886.00
259.13	918.00
259.40	913.00
259.67	949.00
259.93	919.00
260.20	939.00
260.47	951.00
260.73	931.00
261.00	906.00
261.27	918.00
261.53	938.00
261.80	934.00
262.07	899.00
262.34	909.00
262.60	889.00
262.87	923.00
263.14	892.00
263.40	926.00
263.67	919.00
263.94	910.00
264.20	900.00
264.47	888.00
264.74	891.00
265.00	902.00
265.27	878.00
265.54	893.00
265.80	946.00
266.07	961.00
266.34	898.00
266.60	923.00
266.87	924.00
267.14	936.00
267.40	885.00
267.67	886.00
267.94	925.00
268.20	924.00
268.47	876.00
268.74	879.00
269.00	907.00
269.27	903.00
269.54	860.00
269.80	879.00
270.07	941.00
270.33	924.00
270.60	892.00
270.87	900.00
271.13	911.00
271.40	926.00
271.67	855.00
271.93	854.00
272.20	910.00
272.47	891.00
272.73	851.00
273.00	886.00
273.27	919.00
273.53	943.00
273.80	902.00
274.07	894.00
274.33	907.00
274.60	962.00
274.86	897.00
275.13	901.00
275.40	905.00
275.66	962.00
275.93	893.00
276.20	885.00
276.46	892.00
276.73	894.00
277.00	899.00
277.26	916.00
277.53	936.00
277.79	941.00
278.06	904.00
278.33	925.00
278.59	939.00
278.86	916.00
279.13	902.00
279.39	900.00
279.66	945.00
279.93	972.00
280.19	903.00
280.46	889.00
280.72	896.00
280.99	932.00
281.26	888.00
281.52	888.00
281.79	920.00
282.05	928.00
282.32	896.00
282.59	901.00
282.85	961.00
283.12	940.00
283.39	906.00
283.65	899.00
283.92	917.00
284.18	923.00
284.45	893.00
284.72	909.00
284.98	909.00
285.25	911.00
285.51	913.00
285.78	913.00
286.05	899.00
286.31	916.00
286.58	879.00
286.84	889.00
287.11	912.00
287.38	928.00
287.64	922.00
287.91	889.00
288.17	927.00
288.44	927.00
288.71	871.00
288.97	905.00
289.24	936.00
289.50	901.00
289.77	916.00
290.04	869.00
290.30	901.00
290.57	945.00
290.83	876.00
291.10	893.00
291.37	926.00
291.63	918.00
291.90	910.00
292.16	924.00
292.43	932.00
292.70	922.00
292.96	870.00
293.23	871.00
293.49	895.00
293.76	941.00
294.02	898.00
294.29	908.00
294.56	937.00
294.82	923.00
295.09	890.00
295.35	874.00
295.62	917.00
295.89	936.00
296.15	879.00
296.42	882.00
296.68	906.00
296.95	907.00
297.21	899.00
297.48	885.00
297.75	924.00
298.01	949.00
298.28	888.00
298.54	921.00
298.81	915.00
299.07	930.00
299.34	881.00
299.61	881.00
299.87	931.00
300.14	920.00
300.40	918.00
300.67	915.00
300.93	949.00
301.20	973.00
301.46	881.00
301.73	905.00
302.00	922.00
302.26	912.00
302.53	902.00
302.79	921.00
303.06	925.00
303.32	955.00
303.59	886.00
303.85	878.00
304.12	895.00
304.39	919.00
304.65	897.00
304.92	917.00
305.18	916.00
305.45	920.00
305.71	906.00
305.98	903.00
306.24	923.00
306.51	933.00
306.77	898.00
307.04	891.00
307.31	933.00
307.57	929.00
307.84	875.00
308.10	903.00
308.37	890.00
308.63	897.00
308.90	891.00
309.16	903.00
309.43	928.00
309.69	921.00
309.96	913.00
310.22	899.00
310.49	915.00
310.76	933.00
311.02	889.00
311.29	905.00
311.55	912.00
311.82	915.00
312.08	897.00
312.35	904.00
312.61	927.00
312.88	929.00
313.14	887.00
313.41	897.00
313.67	895.00
313.94	927.00
314.20	898.00
314.47	921.00
314.73	903.00
315.00	913.00
315.26	873.00
315.53	914.00
315.79	921.00
316.06	925.00
316.32	894.00
316.59	929.00
316.85	927.00
317.12	938.00
317.39	861.00
317.65	882.00
317.92	909.00
318.18	929.00
318.45	905.00
318.71	946.00
318.98	952.00
319.24	931.00
319.51	897.00
319.77	898.00
320.04	929.00
320.30	919.00
320.57	871.00
320.83	877.00
321.10	876.00
321.36	901.00
321.63	864.00
321.89	893.00
322.16	946.00
322.42	942.00
322.69	881.00
322.95	892.00
323.22	924.00
323.48	955.00
323.75	884.00
324.01	900.00
324.28	932.00
324.54	944.00
324.80	912.00
325.07	924.00
325.33	922.00
325.60	909.00
325.86	879.00
326.13	914.00
326.39	919.00
326.66	901.00
326.92	863.00
327.19	889.00
327.45	933.00
327.72	948.00
327.98	895.00
328.25	883.00
328.51	906.00
328.78	924.00
329.04	893.00
329.31	918.00
329.57	926.00
329.84	921.00
330.10	881.00
330.37	885.00
330.63	939.00
330.89	970.00
331.16	900.00
331.42	909.00
331.69	943.00
331.95	926.00
332.22	923.00
332.48	945.00
332.75	936.00
333.01	906.00
333.28	895.00
333.54	899.00
333.81	916.00
334.07	934.00
334.34	896.00
334.60	897.00
334.86	926.00
335.13	954.00
335.39	906.00
335.66	906.00
335.92	934.00
336.19	921.00
336.45	848.00
336.72	874.00
336.98	901.00
337.24	923.00
337.51	884.00
337.77	893.00
338.04	925.00
338.30	916.00
338.57	886.00
338.83	921.00
339.10	934.00
339.36	927.00
339.63	899.00
339.89	882.00
340.15	908.00
340.42	909.00
340.68	899.00
340.95	917.00
341.21	909.00
341.48	930.00
341.74	872.00
342.00	866.00
342.27	936.00
342.53	931.00
342.80	894.00
343.06	892.00
343.33	919.00
343.59	937.00
343.85	901.00
344.12	920.00
344.38	979.00
344.65	967.00
344.91	900.00
345.18	894.00
345.44	892.00
345.70	901.00
345.97	849.00
346.23	879.00
346.50	933.00
346.76	929.00
347.03	910.00
347.29	905.00
347.55	898.00
347.82	888.00
348.08	876.00
348.35	894.00
348.61	970.00
348.87	952.00
349.14	890.00
349.40	869.00
349.67	916.00
349.93	919.00
350.20	908.00
350.46	919.00
350.72	940.00
350.99	918.00
351.25	895.00
351.52	888.00
351.78	912.00
352.04	916.00
352.31	907.00
352.57	911.00
352.84	898.00
353.10	908.00
353.36	894.00
353.63	894.00
353.89	910.00
354.16	921.00
354.42	909.00
354.68	915.00
354.95	941.00
355.21	932.00
355.48	893.00
355.74	922.00
356.00	957.00
356.27	945.00
356.53	890.00
356.80	898.00
357.06	931.00
357.32	937.00
357.59	914.00
357.85	932.00
358.11	955.00
358.38	929.00
358.64	889.00
358.91	891.00
359.17	906.00
359.43	944.00
359.70	910.00
359.96	900.00
360.22	922.00
360.49	900.00
360.75	900.00
361.02	891.00
361.28	913.00
361.54	919.00
361.81	880.00
362.07	896.00
362.33	901.00
362.60	898.00
362.86	873.00
363.13	901.00
363.39	933.00
363.65	927.00
363.92	852.00
364.18	866.00
364.44	908.00
364.71	930.00
364.97	889.00
365.24	880.00
365.50	930.00
365.76	938.00
366.03	906.00
366.29	924.00
366.55	934.00
366.82	927.00
367.08	893.00
367.34	913.00
367.61	935.00
367.87	937.00
368.13	903.00
368.40	897.00
368.66	972.00
368.93	940.00
369.19	874.00
369.45	877.00
369.72	897.00
369.98	893.00
370.24	854.00
370.51	880.00
370.77	896.00
371.03	902.00
371.30	879.00
371.56	916.00
371.82	931.00
372.09	913.00
372.35	914.00
372.61	910.00
372.88	904.00
373.14	923.00
373.40	901.00
373.67	883.00
373.93	910.00
374.19	930.00
374.46	898.00
374.72	883.00
374.98	913.00
375.25	931.00
375.51	916.00
375.77	918.00
376.04	933.00
376.30	947.00
376.56	902.00
376.83	900.00
377.09	924.00
377.35	931.00
377.62	906.00
377.88	900.00
378.14	897.00
378.41	937.00
378.67	892.00
378.93	896.00
379.20	927.00
379.46	891.00
379.72	880.00
379.99	910.00
380.25	904.00
380.51	898.00
380.77	896.00
381.04	899.00
381.30	923.00
381.56	939.00
381.83	910.00
382.09	888.00
382.35	903.00
382.62	933.00
382.88	932.00
383.14	917.00
383.41	900.00
383.67	905.00
383.93	906.00
384.20	897.00
384.46	896.00
384.72	945.00
384.98	876.00
385.25	887.00
385.51	919.00
385.77	923.00
386.04	907.00
386.30	882.00
386.56	931.00
386.82	988.00
387.09	911.00
387.35	932.00
387.61	973.00
387.88	934.00
388.14	923.00
388.40	918.00
388.67	912.00
388.93	920.00
389.19	906.00
389.45	907.00
389.72	916.00
389.98	933.00
390.24	913.00
390.51	892.00
390.77	932.00
391.03	942.00
391.29	883.00
391.56	899.00
391.82	929.00
392.08	948.00
392.35	909.00
392.61	913.00
392.87	944.00
393.13	939.00
393.40	901.00
393.66	898.00
393.92	909.00
394.18	917.00
394.45	859.00
394.71	869.00
394.97	887.00
395.24	889.00
395.50	870.00
395.76	917.00
396.02	931.00
396.29	931.00
396.55	855.00
396.81	833.00
397.07	902.00
397.34	881.00
397.60	876.00
397.86	880.00
398.12	890.00
398.39	918.00
398.65	873.00
398.91	875.00
399.17	889.00
399.44	856.00
399.70	845.00
399.96	880.00
400.22	893.00
400.49	933.00
400.75	887.00
401.01	894.00
401.27	902.00
401.54	923.00
401.80	892.00
402.06	873.00
402.32	913.00
402.59	915.00
402.85	861.00
403.11	886.00
403.37	917.00
403.64	949.00
403.90	888.00
404.16	902.00
404.42	907.00
404.69	902.00
404.95	873.00
405.21	841.00
405.47	897.00
405.74	934.00
406.00	890.00
406.26	878.00
406.52	906.00
406.79	921.00
407.05	904.00
407.31	910.00
407.57	906.00
407.83	912.00
408.10	877.00
408.36	877.00
408.62	901.00
408.88	902.00
409.15	872.00
409.41	860.00
409.67	878.00
409.93	919.00
410.20	900.00
410.46	901.00
410.72	890.00
410.98	910.00
411.24	889.00
411.51	906.00
411.77	899.00
412.03	917.00
412.29	921.00
412.55	934.00
412.82	909.00
413.08	912.00
413.34	914.00
413.60	908.00
413.87	909.00
414.13	922.00
414.39	870.00
414.65	885.00
414.91	929.00
415.18	910.00
415.44	870.00
415.70	865.00
415.96	914.00
416.22	927.00
416.49	887.00
416.75	882.00
417.01	909.00
417.27	908.00
417.53	884.00
417.80	899.00
418.06	910.00
418.32	908.00
418.58	864.00
418.84	869.00
419.11	909.00
419.37	926.00
419.63	882.00
419.89	878.00
420.15	907.00
420.42	900.00
420.68	877.00
420.94	894.00
421.20	900.00
421.46	912.00
421.72	896.00
421.99	914.00
422.25	919.00
422.51	922.00
422.77	885.00
423.03	921.00
423.30	916.00
423.56	918.00
423.82	922.00
424.08	906.00
424.34	903.00
424.60	913.00
424.87	882.00
425.13	886.00
425.39	895.00
425.65	893.00
425.91	875.00
426.18	900.00
426.44	907.00
426.70	892.00
426.96	843.00
427.22	845.00
427.48	873.00
427.75	894.00
428.01	868.00
428.27	903.00
428.53	935.00
428.79	888.00
429.05	878.00
429.32	881.00
429.58	925.00
429.84	893.00
430.10	899.00
430.36	881.00
430.62	934.00
430.88	931.00
431.15	895.00
431.41	909.00
431.67	908.00
431.93	898.00
432.19	866.00
432.45	895.00
432.72	914.00
432.98	909.00
433.24	925.00
433.50	990.00
433.76	904.00
434.02	876.00
434.28	871.00
434.55	887.00
434.81	913.00
435.07	918.00
435.33	857.00
435.59	892.00
435.85	917.00
436.11	926.00
436.38	874.00
436.64	870.00
436.90	902.00
437.16	890.00
437.42	868.00
437.68	870.00
437.94	925.00
438.21	928.00
438.47	923.00
438.73	908.00
438.99	913.00
439.25	933.00
439.51	913.00
439.77	898.00
440.03	898.00
440.30	929.00
440.56	896.00
440.82	918.00
441.08	930.00
441.34	916.00
441.60	863.00
441.86	889.00
442.12	929.00
442.39	912.00
442.65	881.00
442.91	885.00
443.17	883.00
443.43	912.00
443.69	895.00
443.95	867.00
444.21	891.00
444.47	909.00
444.74	859.00
445.00	891.00
445.26	908.00
445.52	907.00
445.78	880.00
446.04	878.00
446.30	919.00
446.56	914.00
446.82	867.00
447.09	902.00
447.35	931.00
447.61	909.00
447.87	885.00
448.13	909.00
448.39	961.00
448.65	930.00
448.91	882.00
449.17	884.00
449.43	892.00
449.70	916.00
449.96	868.00
450.22	867.00
450.48	917.00
450.74	945.00
451.00	887.00
451.26	874.00
451.52	892.00
451.78	903.00
452.04	859.00
452.31	903.00
452.57	916.00
452.83	891.00
453.09	872.00
453.35	891.00
453.61	911.00
453.87	903.00
454.13	905.00
454.39	923.00
454.65	969.00
454.91	946.00
455.17	884.00
455.44	904.00
455.70	923.00
455.96	919.00
456.22	862.00
456.48	878.00
456.74	900.00
457.00	874.00
457.26	848.00
457.52	880.00
457.78	904.00
458.04	905.00
458.30	856.00
458.56	884.00
458.82	907.00
459.09	893.00
459.35	833.00
459.61	851.00
459.87	901.00
460.13	925.00
460.39	882.00
460.65	858.00
460.91	922.00
461.17	896.00
461.43	861.00
461.69	869.00
461.95	914.00
462.21	901.00
462.47	899.00
462.73	908.00
462.99	914.00
463.26	920.00
463.52	869.00
463.78	860.00
464.04	892.00
464.30	916.00
464.56	882.00
464.82	893.00
465.08	951.00
465.34	942.00
465.60	890.00
465.86	888.00
466.12	894.00
466.38	871.00
466.64	845.00
466.90	892.00
467.16	923.00
467.42	930.00
467.68	862.00
467.94	893.00
468.20	937.00
468.46	910.00
468.72	889.00
468.98	923.00
469.25	930.00
469.51	902.00
469.77	914.00
470.03	915.00
470.29	901.00
470.55	915.00
470.81	894.00
471.07	902.00
471.33	924.00
471.59	916.00
471.85	874.00
472.11	904.00
472.37	912.00
472.63	908.00
472.89	897.00
473.15	885.00
473.41	904.00
473.67	898.00
473.93	843.00
474.19	851.00
474.45	873.00
474.71	915.00
474.97	876.00
475.23	880.00
475.49	892.00
475.75	875.00
476.01	880.00
476.27	890.00
476.53	929.00
476.79	918.00
477.05	883.00
477.31	890.00
477.57	916.00
477.83	902.00
478.09	853.00
478.35	891.00
478.61	935.00
478.87	905.00
479.13	873.00
479.39	910.00
479.65	927.00
479.91	914.00
480.17	903.00
480.43	905.00
480.69	899.00
480.95	926.00
481.21	889.00
481.47	879.00
481.73	899.00
481.99	884.00
482.25	848.00
482.51	862.00
482.77	919.00
483.03	926.00
483.29	893.00
483.55	893.00
483.81	923.00
484.07	917.00
484.33	871.00
484.59	879.00
484.85	932.00
485.11	932.00
485.37	898.00
485.63	878.00
485.89	889.00
486.15	886.00
486.41	882.00
486.67	902.00
486.93	915.00
487.19	872.00
487.45	863.00
487.71	883.00
487.97	932.00
488.23	940.00
488.49	882.00
488.75	867.00
489.01	898.00
489.27	929.00
489.53	868.00
489.79	872.00
490.05	895.00
490.31	909.00
490.57	902.00
490.83	947.00
491.08	909.00
491.34	884.00
491.60	872.00
491.86	907.00
492.12	934.00
492.38	931.00
492.64	869.00
492.90	873.00
493.16	921.00
493.42	880.00
493.68	865.00
493.94	907.00
494.20	884.00
494.46	909.00
494.72	879.00
494.98	894.00
495.24	899.00
495.50	899.00
495.76	898.00
496.02	914.00
496.28	930.00
496.54	934.00
496.80	889.00
497.05	857.00
497.31	918.00
497.57	914.00
497.83	887.00
498.09	898.00
498.35	921.00
498.61	891.00
498.87	879.00
499.13	898.00
499.39	910.00
499.65	903.00
499.91	880.00
500.17	877.00
500.43	959.00
500.69	972.00
500.95	873.00
501.20	903.00
501.46	913.00
501.72	922.00
501.98	912.00
502.24	910.00
502.50	924.00
502.76	907.00
503.02	878.00
503.28	889.00
503.54	938.00
503.80	953.00
504.06	914.00
504.32	912.00
504.58	916.00
504.83	902.00
505.09	860.00
505.35	891.00
505.61	893.00
505.87	898.00
506.13	922.00
506.39	884.00
506.65	930.00
506.91	965.00
507.17	891.00
507.43	882.00
507.68	902.00
507.94	909.00
508.20	871.00
508.46	859.00
508.72	925.00
508.98	940.00
509.24	876.00
509.50	910.00
509.76	896.00
510.02	886.00
510.28	869.00
510.53	883.00
510.79	921.00
511.05	906.00
511.31	881.00
511.57	894.00
511.83	896.00
512.09	915.00
512.35	877.00
512.61	900.00
512.87	920.00
513.12	918.00
513.38	870.00
513.64	888.00
513.90	900.00
514.16	937.00
514.42	888.00
514.68	889.00
514.94	918.00
515.20	929.00
515.45	878.00
515.71	885.00
515.97	910.00
516.23	894.00
516.49	870.00
516.75	880.00
517.01	898.00
517.27	885.00
517.53	850.00
517.78	888.00
518.04	901.00
518.30	882.00
518.56	873.00
518.82	917.00
519.08	937.00
519.34	906.00
519.60	885.00
519.85	892.00
520.11	906.00
520.37	895.00
520.63	878.00
520.89	904.00
521.15	915.00
521.41	899.00
521.66	887.00
521.92	887.00
522.18	927.00
522.44	931.00
522.70	886.00
522.96	856.00
523.22	911.00
523.48	907.00
523.73	879.00
523.99	871.00
524.25	931.00
524.51	913.00
524.77	857.00
525.03	862.00
525.29	903.00
525.54	931.00
525.80	893.00
526.06	884.00
526.32	895.00
526.58	884.00
526.84	875.00
527.09	876.00
527.35	871.00
527.61	877.00
527.87	865.00
528.13	917.00
528.39	904.00
528.65	900.00
528.90	848.00
529.16	859.00
529.42	868.00
529.68	877.00
529.94	856.00
530.20	872.00
530.45	889.00
530.71	904.00
530.97	866.00
531.23	882.00
531.49	910.00
531.75	909.00
532.00	890.00
532.26	874.00
532.52	915.00
532.78	888.00
533.04	873.00
533.30	897.00
533.55	906.00
533.81	896.00
534.07	860.00
534.33	875.00
534.59	917.00
534.85	910.00
535.10	861.00
535.36	858.00
535.62	896.00
535.88	879.00
