SpectraSuite Data File
++++++++++++++++++++++++++++++++++++
Date: Fri Dec 06 16:16:52 CET 2024
User: student
Dark Spectrum Present: Yes
Reference Spectrum Present: Yes
Number of Sampled Component Spectra: 1
Spectrometers: HR4C155
Integration Time (usec): 100000 (HR4C155)
Spectra Averaged: 1 (HR4C155)
Boxcar Smoothing: 0 (HR4C155)
Correct for Electrical Dark: No (HR4C155)
Strobe/Lamp Enabled: No (HR4C155)
Correct for Detector Non-linearity: No (HR4C155)
Correct for Stray Light: No (HR4C155)
Number of Pixels in Processed Spectrum: 3648
>>>>>Begin Processed Spectral Data<<<<<
195.39	687.00
195.66	687.00
195.93	687.00
196.20	674.00
196.46	714.00
196.73	836.00
197.00	834.00
197.27	837.00
197.54	857.00
197.81	871.00
198.08	856.00
198.35	890.00
198.61	908.00
198.88	877.00
199.15	878.00
199.42	890.00
199.69	895.00
199.96	877.00
200.23	873.00
200.49	882.00
200.76	902.00
201.03	886.00
201.30	870.00
201.57	938.00
201.84	948.00
202.11	894.00
202.38	908.00
202.64	917.00
202.91	943.00
203.18	882.00
203.45	930.00
203.72	1038.00
203.99	953.00
204.25	919.00
204.52	919.00
204.79	944.00
205.06	941.00
205.33	885.00
205.60	911.00
205.87	943.00
206.13	946.00
206.40	924.00
206.67	904.00
206.94	924.00
207.21	948.00
207.48	916.00
207.75	886.00
208.01	942.00
208.28	942.00
208.55	917.00
208.82	919.00
209.09	926.00
209.36	943.00
209.62	927.00
209.89	943.00
210.16	944.00
210.43	972.00
210.70	892.00
210.97	908.00
211.23	939.00
211.50	963.00
211.77	908.00
212.04	921.00
212.31	934.00
212.58	952.00
212.84	916.00
213.11	941.00
213.38	899.00
213.65	921.00
213.92	898.00
214.18	930.00
214.45	967.00
214.72	943.00
214.99	882.00
215.26	908.00
215.53	889.00
215.79	934.00
216.06	933.00
216.33	938.00
216.60	925.00
216.87	948.00
217.13	884.00
217.40	920.00
217.67	949.00
217.94	974.00
218.21	885.00
218.48	948.00
218.74	1001.00
219.01	953.00
219.28	884.00
219.55	889.00
219.82	910.00
220.08	924.00
220.35	910.00
220.62	924.00
220.89	970.00
221.16	973.00
221.42	922.00
221.69	929.00
221.96	951.00
222.23	954.00
222.50	940.00
222.76	955.00
223.03	939.00
223.30	914.00
223.57	891.00
223.84	877.00
224.10	902.00
224.37	930.00
224.64	898.00
224.91	911.00
225.18	955.00
225.44	945.00
225.71	912.00
225.98	937.00
226.25	972.00
226.51	963.00
226.78	892.00
227.05	909.00
227.32	914.00
227.59	937.00
227.85	938.00
228.12	936.00
228.39	967.00
228.66	982.00
228.92	987.00
229.19	942.00
229.46	940.00
229.73	923.00
230.00	896.00
230.26	932.00
230.53	967.00
230.80	949.00
231.07	874.00
231.33	874.00
231.60	935.00
231.87	946.00
232.14	910.00
232.41	947.00
232.67	938.00
232.94	939.00
233.21	918.00
233.48	930.00
233.74	921.00
234.01	915.00
234.28	889.00
234.55	914.00
234.81	915.00
235.08	967.00
235.35	909.00
235.62	911.00
235.88	914.00
236.15	939.00
236.42	899.00
236.69	913.00
236.95	958.00
237.22	931.00
237.49	916.00
237.76	901.00
238.02	952.00
238.29	968.00
238.56	908.00
238.83	906.00
239.09	925.00
239.36	958.00
239.63	909.00
239.90	913.00
240.16	958.00
240.43	980.00
240.70	912.00
240.97	904.00
241.23	913.00
241.50	940.00
241.77	919.00
242.04	911.00
242.30	902.00
242.57	914.00
242.84	891.00
243.11	920.00
243.37	896.00
243.64	951.00
243.91	907.00
244.18	915.00
244.44	900.00
244.71	906.00
244.98	902.00
245.24	915.00
245.51	927.00
245.78	941.00
246.05	889.00
246.31	901.00
246.58	933.00
246.85	928.00
247.12	886.00
247.38	922.00
247.65	937.00
247.92	934.00
248.18	907.00
248.45	911.00
248.72	923.00
248.99	930.00
249.25	889.00
249.52	909.00
249.79	938.00
250.05	938.00
250.32	903.00
250.59	904.00
250.86	919.00
251.12	919.00
251.39	891.00
251.66	935.00
251.92	962.00
252.19	948.00
252.46	882.00
252.73	931.00
252.99	957.00
253.26	960.00
253.53	893.00
253.79	917.00
254.06	936.00
254.33	904.00
254.60	877.00
254.86	901.00
255.13	947.00
255.40	973.00
255.66	921.00
255.93	919.00
256.20	921.00
256.46	925.00
256.73	899.00
257.00	907.00
257.26	936.00
257.53	940.00
257.80	919.00
258.07	936.00
258.33	968.00
258.60	946.00
258.87	892.00
259.13	921.00
259.40	917.00
259.67	965.00
259.93	918.00
260.20	936.00
260.47	954.00
260.73	925.00
261.00	908.00
261.27	916.00
261.53	951.00
261.80	935.00
262.07	892.00
262.34	905.00
262.60	889.00
262.87	916.00
263.14	898.00
263.40	935.00
263.67	915.00
263.94	914.00
264.20	905.00
264.47	896.00
264.74	882.00
265.00	917.00
265.27	879.00
265.54	892.00
265.80	949.00
266.07	951.00
266.34	897.00
266.60	912.00
266.87	935.00
267.14	941.00
267.40	901.00
267.67	889.00
267.94	928.00
268.20	935.00
268.47	890.00
268.74	907.00
269.00	932.00
269.27	910.00
269.54	856.00
269.80	889.00
270.07	944.00
270.33	920.00
270.60	894.00
270.87	922.00
271.13	903.00
271.40	942.00
271.67	870.00
271.93	854.00
272.20	899.00
272.47	900.00
272.73	861.00
273.00	918.00
273.27	942.00
273.53	967.00
273.80	894.00
274.07	886.00
274.33	905.00
274.60	939.00
274.86	903.00
275.13	913.00
275.40	920.00
275.66	954.00
275.93	902.00
276.20	894.00
276.46	913.00
276.73	913.00
277.00	889.00
277.26	908.00
277.53	947.00
277.79	922.00
278.06	900.00
278.33	949.00
278.59	936.00
278.86	909.00
279.13	900.00
279.39	913.00
279.66	952.00
279.93	959.00
280.19	893.00
280.46	912.00
280.72	921.00
280.99	940.00
281.26	902.00
281.52	903.00
281.79	945.00
282.05	946.00
282.32	912.00
282.59	912.00
282.85	948.00
283.12	942.00
283.39	894.00
283.65	909.00
283.92	918.00
284.18	927.00
284.45	910.00
284.72	929.00
284.98	928.00
285.25	916.00
285.51	922.00
285.78	919.00
286.05	902.00
286.31	913.00
286.58	871.00
286.84	886.00
287.11	922.00
287.38	928.00
287.64	924.00
287.91	891.00
288.17	917.00
288.44	919.00
288.71	892.00
288.97	908.00
289.24	935.00
289.50	918.00
289.77	923.00
290.04	903.00
290.30	904.00
290.57	946.00
290.83	874.00
291.10	888.00
291.37	928.00
291.63	909.00
291.90	931.00
292.16	915.00
292.43	915.00
292.70	903.00
292.96	865.00
293.23	882.00
293.49	897.00
293.76	925.00
294.02	892.00
294.29	898.00
294.56	926.00
294.82	937.00
295.09	900.00
295.35	886.00
295.62	958.00
295.89	955.00
296.15	877.00
296.42	883.00
296.68	913.00
296.95	910.00
297.21	918.00
297.48	905.00
297.75	904.00
298.01	948.00
298.28	900.00
298.54	909.00
298.81	917.00
299.07	936.00
299.34	880.00
299.61	884.00
299.87	922.00
300.14	915.00
300.40	910.00
300.67	893.00
300.93	931.00
301.20	956.00
301.46	897.00
301.73	896.00
302.00	917.00
302.26	909.00
302.53	906.00
302.79	899.00
303.06	940.00
303.32	976.00
303.59	880.00
303.85	888.00
304.12	919.00
304.39	938.00
304.65	909.00
304.92	922.00
305.18	930.00
305.45	914.00
305.71	898.00
305.98	909.00
306.24	912.00
306.51	917.00
306.77	903.00
307.04	919.00
307.31	950.00
307.57	936.00
307.84	876.00
308.10	891.00
308.37	889.00
308.63	915.00
308.90	897.00
309.16	912.00
309.43	941.00
309.69	913.00
309.96	900.00
310.22	900.00
310.49	922.00
310.76	926.00
311.02	856.00
311.29	882.00
311.55	885.00
311.82	918.00
312.08	911.00
312.35	915.00
312.61	941.00
312.88	954.00
313.14	896.00
313.41	889.00
313.67	880.00
313.94	922.00
314.20	917.00
314.47	917.00
314.73	917.00
315.00	921.00
315.26	879.00
315.53	913.00
315.79	932.00
316.06	930.00
316.32	915.00
316.59	925.00
316.85	920.00
317.12	945.00
317.39	882.00
317.65	891.00
317.92	906.00
318.18	923.00
318.45	884.00
318.71	938.00
318.98	949.00
319.24	933.00
319.51	911.00
319.77	900.00
320.04	901.00
320.30	906.00
320.57	891.00
320.83	905.00
321.10	892.00
321.36	905.00
321.63	900.00
321.89	885.00
322.16	942.00
322.42	932.00
322.69	889.00
322.95	898.00
323.22	933.00
323.48	941.00
323.75	894.00
324.01	918.00
324.28	925.00
324.54	923.00
324.80	902.00
325.07	917.00
325.33	942.00
325.60	909.00
325.86	881.00
326.13	897.00
326.39	907.00
326.66	901.00
326.92	860.00
327.19	882.00
327.45	953.00
327.72	955.00
327.98	884.00
328.25	897.00
328.51	924.00
328.78	925.00
329.04	883.00
329.31	905.00
329.57	919.00
329.84	917.00
330.10	887.00
330.37	911.00
330.63	939.00
330.89	948.00
331.16	906.00
331.42	897.00
331.69	926.00
331.95	913.00
332.22	914.00
332.48	934.00
332.75	920.00
333.01	891.00
333.28	885.00
333.54	901.00
333.81	931.00
334.07	929.00
334.34	909.00
334.60	923.00
334.86	962.00
335.13	968.00
335.39	898.00
335.66	907.00
335.92	934.00
336.19	938.00
336.45	868.00
336.72	889.00
336.98	898.00
337.24	944.00
337.51	880.00
337.77	895.00
338.04	921.00
338.30	921.00
338.57	873.00
338.83	911.00
339.10	928.00
339.36	929.00
339.63	929.00
339.89	878.00
340.15	903.00
340.42	938.00
340.68	921.00
340.95	918.00
341.21	910.00
341.48	920.00
341.74	874.00
342.00	877.00
342.27	923.00
342.53	921.00
342.80	887.00
343.06	908.00
343.33	929.00
343.59	954.00
343.85	892.00
344.12	910.00
344.38	985.00
344.65	955.00
344.91	898.00
345.18	894.00
345.44	902.00
345.70	903.00
345.97	869.00
346.23	895.00
346.50	927.00
346.76	927.00
347.03	907.00
347.29	904.00
347.55	915.00
347.82	914.00
348.08	863.00
348.35	884.00
348.61	952.00
348.87	932.00
349.14	867.00
349.40	884.00
349.67	920.00
349.93	900.00
350.20	901.00
350.46	920.00
350.72	956.00
350.99	924.00
351.25	907.00
351.52	918.00
351.78	901.00
352.04	914.00
352.31	886.00
352.57	903.00
352.84	886.00
353.10	910.00
353.36	903.00
353.63	901.00
353.89	916.00
354.16	926.00
354.42	893.00
354.68	905.00
354.95	961.00
355.21	933.00
355.48	873.00
355.74	918.00
356.00	957.00
356.27	952.00
356.53	884.00
356.80	898.00
357.06	945.00
357.32	948.00
357.59	922.00
357.85	908.00
358.11	939.00
358.38	930.00
358.64	902.00
358.91	913.00
359.17	941.00
359.43	946.00
359.70	905.00
359.96	913.00
360.22	948.00
360.49	912.00
360.75	892.00
361.02	871.00
361.28	889.00
361.54	913.00
361.81	866.00
362.07	900.00
362.33	903.00
362.60	896.00
362.86	867.00
363.13	903.00
363.39	938.00
363.65	938.00
363.92	854.00
364.18	850.00
364.44	905.00
364.71	921.00
364.97	889.00
365.24	890.00
365.50	930.00
365.76	928.00
366.03	890.00
366.29	912.00
366.55	916.00
366.82	902.00
367.08	874.00
367.34	903.00
367.61	954.00
367.87	945.00
368.13	905.00
368.40	900.00
368.66	958.00
368.93	946.00
369.19	874.00
369.45	885.00
369.72	935.00
369.98	901.00
370.24	866.00
370.51	890.00
370.77	928.00
371.03	912.00
371.30	904.00
371.56	931.00
371.82	932.00
372.09	935.00
372.35	904.00
372.61	916.00
372.88	929.00
373.14	938.00
373.40	875.00
373.67	888.00
373.93	925.00
374.19	942.00
374.46	897.00
374.72	875.00
374.98	907.00
375.25	915.00
375.51	920.00
375.77	939.00
376.04	940.00
376.30	934.00
376.56	891.00
376.83	887.00
377.09	933.00
377.35	933.00
377.62	909.00
377.88	899.00
378.14	907.00
378.41	923.00
378.67	888.00
378.93	894.00
379.20	920.00
379.46	903.00
379.72	879.00
379.99	880.00
380.25	895.00
380.51	877.00
380.77	883.00
381.04	907.00
381.30	928.00
381.56	943.00
381.83	912.00
382.09	901.00
382.35	916.00
382.62	932.00
382.88	918.00
383.14	905.00
383.41	909.00
383.67	907.00
383.93	907.00
384.20	904.00
384.46	924.00
384.72	948.00
384.98	886.00
385.25	901.00
385.51	923.00
385.77	916.00
386.04	877.00
386.30	873.00
386.56	941.00
386.82	985.00
387.09	902.00
387.35	932.00
387.61	973.00
387.88	941.00
388.14	920.00
388.40	933.00
388.67	915.00
388.93	901.00
389.19	889.00
389.45	899.00
389.72	910.00
389.98	921.00
390.24	879.00
390.51	876.00
390.77	930.00
391.03	959.00
391.29	881.00
391.56	884.00
391.82	931.00
392.08	952.00
392.35	897.00
392.61	888.00
392.87	920.00
393.13	941.00
393.40	900.00
393.66	910.00
393.92	925.00
394.18	926.00
394.45	883.00
394.71	878.00
394.97	893.00
395.24	890.00
395.50	867.00
395.76	917.00
396.02	928.00
396.29	922.00
396.55	869.00
396.81	855.00
397.07	896.00
397.34	892.00
397.60	866.00
397.86	878.00
398.12	905.00
398.39	944.00
398.65	889.00
398.91	888.00
399.17	902.00
399.44	878.00
399.70	848.00
399.96	885.00
400.22	887.00
400.49	941.00
400.75	917.00
401.01	896.00
401.27	892.00
401.54	930.00
401.80	893.00
402.06	874.00
402.32	934.00
402.59	914.00
402.85	883.00
403.11	915.00
403.37	913.00
403.64	946.00
403.90	889.00
404.16	889.00
404.42	903.00
404.69	884.00
404.95	873.00
405.21	863.00
405.47	905.00
405.74	937.00
406.00	899.00
406.26	884.00
406.52	909.00
406.79	930.00
407.05	884.00
407.31	885.00
407.57	893.00
407.83	917.00
408.10	858.00
408.36	883.00
408.62	892.00
408.88	900.00
409.15	881.00
409.41	845.00
409.67	866.00
409.93	932.00
410.20	907.00
410.46	889.00
410.72	893.00
410.98	906.00
411.24	886.00
411.51	895.00
411.77	883.00
412.03	915.00
412.29	892.00
412.55	909.00
412.82	900.00
413.08	918.00
413.34	902.00
413.60	898.00
413.87	921.00
414.13	929.00
414.39	872.00
414.65	885.00
414.91	922.00
415.18	900.00
415.44	870.00
415.70	874.00
415.96	898.00
416.22	918.00
416.49	869.00
416.75	878.00
417.01	904.00
417.27	910.00
417.53	887.00
417.80	895.00
418.06	916.00
418.32	943.00
418.58	879.00
418.84	883.00
419.11	900.00
419.37	937.00
419.63	906.00
419.89	896.00
420.15	908.00
420.42	884.00
420.68	873.00
420.94	903.00
421.20	913.00
421.46	915.00
421.72	901.00
421.99	903.00
422.25	919.00
422.51	928.00
422.77	900.00
423.03	909.00
423.30	909.00
423.56	934.00
423.82	920.00
424.08	911.00
424.34	926.00
424.60	918.00
424.87	890.00
425.13	884.00
425.39	882.00
425.65	877.00
425.91	885.00
426.18	910.00
426.44	913.00
426.70	888.00
426.96	858.00
427.22	868.00
427.48	906.00
427.75	900.00
428.01	845.00
428.27	882.00
428.53	927.00
428.79	884.00
429.05	861.00
429.32	891.00
429.58	941.00
429.84	893.00
430.10	906.00
430.36	898.00
430.62	932.00
430.88	922.00
431.15	902.00
431.41	900.00
431.67	914.00
431.93	904.00
432.19	872.00
432.45	901.00
432.72	923.00
432.98	913.00
433.24	917.00
433.50	981.00
433.76	889.00
434.02	882.00
434.28	867.00
434.55	886.00
434.81	908.00
435.07	912.00
435.33	875.00
435.59	866.00
435.85	888.00
436.11	913.00
436.38	865.00
436.64	876.00
436.90	886.00
437.16	891.00
437.42	865.00
437.68	879.00
437.94	923.00
438.21	935.00
438.47	932.00
438.73	916.00
438.99	915.00
439.25	920.00
439.51	881.00
439.77	909.00
440.03	898.00
440.30	919.00
440.56	897.00
440.82	916.00
441.08	930.00
441.34	921.00
441.60	866.00
441.86	877.00
442.12	922.00
442.39	929.00
442.65	884.00
442.91	886.00
443.17	900.00
443.43	904.00
443.69	892.00
443.95	876.00
444.21	898.00
444.47	935.00
444.74	866.00
445.00	886.00
445.26	907.00
445.52	906.00
445.78	884.00
446.04	882.00
446.30	930.00
446.56	922.00
446.82	874.00
447.09	894.00
447.35	936.00
447.61	908.00
447.87	881.00
448.13	888.00
448.39	943.00
448.65	931.00
448.91	880.00
449.17	883.00
449.43	894.00
449.70	908.00
449.96	877.00
450.22	880.00
450.48	914.00
450.74	953.00
451.00	889.00
451.26	888.00
451.52	907.00
451.78	895.00
452.04	872.00
452.31	912.00
452.57	905.00
452.83	893.00
453.09	876.00
453.35	883.00
453.61	901.00
453.87	909.00
454.13	919.00
454.39	917.00
454.65	970.00
454.91	946.00
455.17	874.00
455.44	884.00
455.70	923.00
455.96	916.00
456.22	887.00
456.48	893.00
456.74	934.00
457.00	874.00
457.26	829.00
457.52	865.00
457.78	894.00
458.04	913.00
458.30	867.00
458.56	891.00
458.82	889.00
459.09	883.00
459.35	841.00
459.61	874.00
459.87	909.00
460.13	935.00
460.39	891.00
460.65	876.00
460.91	939.00
461.17	894.00
461.43	858.00
461.69	874.00
461.95	917.00
462.21	901.00
462.47	888.00
462.73	925.00
462.99	933.00
463.26	918.00
463.52	872.00
463.78	870.00
464.04	884.00
464.30	898.00
464.56	871.00
464.82	889.00
465.08	935.00
465.34	940.00
465.60	902.00
465.86	901.00
466.12	894.00
466.38	874.00
466.64	853.00
466.90	878.00
467.16	912.00
467.42	910.00
467.68	865.00
467.94	888.00
468.20	939.00
468.46	909.00
468.72	885.00
468.98	905.00
469.25	918.00
469.51	899.00
469.77	905.00
470.03	892.00
470.29	900.00
470.55	925.00
470.81	897.00
471.07	897.00
471.33	917.00
471.59	916.00
471.85	879.00
472.11	901.00
472.37	905.00
472.63	893.00
472.89	889.00
473.15	873.00
473.41	908.00
473.67	911.00
473.93	859.00
474.19	858.00
474.45	877.00
474.71	906.00
474.97	879.00
475.23	887.00
475.49	897.00
475.75	870.00
476.01	882.00
476.27	908.00
476.53	934.00
476.79	933.00
477.05	890.00
477.31	879.00
477.57	923.00
477.83	914.00
478.09	853.00
478.35	915.00
478.61	937.00
478.87	899.00
479.13	860.00
479.39	911.00
479.65	933.00
479.91	929.00
480.17	889.00
480.43	921.00
480.69	889.00
480.95	909.00
481.21	869.00
481.47	887.00
481.73	901.00
481.99	885.00
482.25	867.00
482.51	865.00
482.77	910.00
483.03	894.00
483.29	895.00
483.55	881.00
483.81	924.00
484.07	929.00
484.33	877.00
484.59	884.00
484.85	929.00
485.11	918.00
485.37	895.00
485.63	892.00
485.89	906.00
486.15	884.00
486.41	889.00
486.67	894.00
486.93	910.00
487.19	883.00
487.45	865.00
487.71	885.00
487.97	919.00
488.23	923.00
488.49	870.00
488.75	868.00
489.01	909.00
489.27	927.00
489.53	879.00
489.79	871.00
490.05	918.00
490.31	941.00
490.57	916.00
490.83	954.00
491.08	902.00
491.34	881.00
491.60	861.00
491.86	894.00
492.12	955.00
492.38	938.00
492.64	871.00
492.90	868.00
493.16	916.00
493.42	888.00
493.68	872.00
493.94	894.00
494.20	898.00
494.46	913.00
494.72	880.00
494.98	874.00
495.24	880.00
495.50	909.00
495.76	905.00
496.02	912.00
496.28	907.00
496.54	898.00
496.80	876.00
497.05	865.00
497.31	910.00
497.57	912.00
497.83	884.00
498.09	908.00
498.35	929.00
498.61	911.00
498.87	891.00
499.13	886.00
499.39	903.00
499.65	880.00
499.91	899.00
500.17	887.00
500.43	974.00
500.69	981.00
500.95	873.00
501.20	919.00
501.46	933.00
501.72	932.00
501.98	922.00
502.24	912.00
502.50	937.00
502.76	901.00
503.02	888.00
503.28	904.00
503.54	967.00
503.80	955.00
504.06	910.00
504.32	916.00
504.58	907.00
504.83	900.00
505.09	870.00
505.35	889.00
505.61	889.00
505.87	910.00
506.13	890.00
506.39	883.00
506.65	929.00
506.91	950.00
507.17	889.00
507.43	887.00
507.68	905.00
507.94	939.00
508.20	884.00
508.46	863.00
508.72	931.00
508.98	954.00
509.24	883.00
509.50	887.00
509.76	895.00
510.02	920.00
510.28	871.00
510.53	880.00
510.79	922.00
511.05	917.00
511.31	876.00
511.57	882.00
511.83	909.00
512.09	936.00
512.35	885.00
512.61	874.00
512.87	894.00
513.12	897.00
513.38	859.00
513.64	895.00
513.90	916.00
514.16	946.00
514.42	895.00
514.68	904.00
514.94	924.00
515.20	912.00
515.45	854.00
515.71	867.00
515.97	907.00
516.23	904.00
516.49	872.00
516.75	899.00
517.01	898.00
517.27	899.00
517.53	879.00
517.78	884.00
518.04	911.00
518.30	905.00
518.56	866.00
518.82	903.00
519.08	940.00
519.34	886.00
519.60	867.00
519.85	882.00
520.11	903.00
520.37	885.00
520.63	891.00
520.89	894.00
521.15	897.00
521.41	893.00
521.66	870.00
521.92	878.00
522.18	933.00
522.44	941.00
522.70	893.00
522.96	844.00
523.22	896.00
523.48	900.00
523.73	888.00
523.99	900.00
524.25	943.00
524.51	916.00
524.77	866.00
525.03	875.00
525.29	903.00
525.54	907.00
525.80	869.00
526.06	871.00
526.32	894.00
526.58	889.00
526.84	862.00
527.09	894.00
527.35	892.00
527.61	897.00
527.87	860.00
528.13	896.00
528.39	890.00
528.65	876.00
528.90	855.00
529.16	865.00
529.42	861.00
529.68	890.00
529.94	868.00
530.20	884.00
530.45	887.00
530.71	904.00
530.97	868.00
531.23	878.00
531.49	885.00
531.75	889.00
532.00	873.00
532.26	870.00
532.52	904.00
532.78	880.00
533.04	852.00
533.30	873.00
533.55	894.00
533.81	896.00
534.07	869.00
534.33	875.00
534.59	917.00
534.85	910.00
535.10	873.00
535.36	863.00
535.62	898.00
535.88	907.00
