SpectraSuite Data File
++++++++++++++++++++++++++++++++++++
Date: Fri Dec 06 16:18:17 CET 2024
User: student
Dark Spectrum Present: Yes
Reference Spectrum Present: Yes
Number of Sampled Component Spectra: 1
Spectrometers: HR4C155
Integration Time (usec): 100000 (HR4C155)
Spectra Averaged: 1 (HR4C155)
Boxcar Smoothing: 0 (HR4C155)
Correct for Electrical Dark: No (HR4C155)
Strobe/Lamp Enabled: No (HR4C155)
Correct for Detector Non-linearity: No (HR4C155)
Correct for Stray Light: No (HR4C155)
Number of Pixels in Processed Spectrum: 3648
>>>>>Begin Processed Spectral Data<<<<<
195.39	719.00
195.66	719.00
195.93	719.00
196.20	666.00
196.46	714.00
196.73	835.00
197.00	835.00
197.27	826.00
197.54	875.00
197.81	866.00
198.08	866.00
198.35	889.00
198.61	900.00
198.88	862.00
199.15	857.00
199.42	884.00
199.69	897.00
199.96	866.00
200.23	878.00
200.49	889.00
200.76	903.00
201.03	888.00
201.30	879.00
201.57	937.00
201.84	950.00
202.11	894.00
202.38	923.00
202.64	929.00
202.91	930.00
203.18	882.00
203.45	957.00
203.72	1022.00
203.99	944.00
204.25	938.00
204.52	940.00
204.79	947.00
205.06	935.00
205.33	881.00
205.60	906.00
205.87	948.00
206.13	931.00
206.40	915.00
206.67	910.00
206.94	929.00
207.21	940.00
207.48	905.00
207.75	902.00
208.01	941.00
208.28	946.00
208.55	901.00
208.82	923.00
209.09	914.00
209.36	951.00
209.62	920.00
209.89	931.00
210.16	946.00
210.43	977.00
210.70	892.00
210.97	911.00
211.23	956.00
211.50	979.00
211.77	912.00
212.04	932.00
212.31	939.00
212.58	958.00
212.84	921.00
213.11	936.00
213.38	904.00
213.65	907.00
213.92	899.00
214.18	932.00
214.45	970.00
214.72	945.00
214.99	887.00
215.26	904.00
215.53	902.00
215.79	945.00
216.06	941.00
216.33	930.00
216.60	907.00
216.87	952.00
217.13	891.00
217.40	906.00
217.67	940.00
217.94	957.00
218.21	896.00
218.48	940.00
218.74	986.00
219.01	941.00
219.28	873.00
219.55	884.00
219.82	916.00
220.08	954.00
220.35	908.00
220.62	894.00
220.89	961.00
221.16	987.00
221.42	928.00
221.69	932.00
221.96	950.00
222.23	946.00
222.50	937.00
222.76	947.00
223.03	926.00
223.30	914.00
223.57	897.00
223.84	881.00
224.10	908.00
224.37	933.00
224.64	891.00
224.91	898.00
225.18	957.00
225.44	957.00
225.71	913.00
225.98	924.00
226.25	961.00
226.51	950.00
226.78	901.00
227.05	920.00
227.32	935.00
227.59	931.00
227.85	919.00
228.12	918.00
228.39	962.00
228.66	957.00
228.92	968.00
229.19	941.00
229.46	947.00
229.73	928.00
230.00	901.00
230.26	935.00
230.53	959.00
230.80	948.00
231.07	890.00
231.33	884.00
231.60	940.00
231.87	960.00
232.14	898.00
232.41	946.00
232.67	943.00
232.94	947.00
233.21	912.00
233.48	913.00
233.74	925.00
234.01	907.00
234.28	876.00
234.55	898.00
234.81	903.00
235.08	956.00
235.35	900.00
235.62	906.00
235.88	913.00
236.15	937.00
236.42	929.00
236.69	932.00
236.95	949.00
237.22	914.00
237.49	894.00
237.76	908.00
238.02	949.00
238.29	973.00
238.56	910.00
238.83	914.00
239.09	937.00
239.36	950.00
239.63	909.00
239.90	928.00
240.16	956.00
240.43	984.00
240.70	911.00
240.97	923.00
241.23	911.00
241.50	937.00
241.77	900.00
242.04	907.00
242.30	895.00
242.57	919.00
242.84	893.00
243.11	913.00
243.37	884.00
243.64	958.00
243.91	902.00
244.18	913.00
244.44	900.00
244.71	913.00
244.98	908.00
245.24	902.00
245.51	921.00
245.78	963.00
246.05	898.00
246.31	910.00
246.58	950.00
246.85	913.00
247.12	900.00
247.38	925.00
247.65	946.00
247.92	951.00
248.18	908.00
248.45	906.00
248.72	936.00
248.99	943.00
249.25	894.00
249.52	898.00
249.79	938.00
250.05	940.00
250.32	903.00
250.59	920.00
250.86	918.00
251.12	934.00
251.39	884.00
251.66	906.00
251.92	941.00
252.19	949.00
252.46	899.00
252.73	936.00
252.99	960.00
253.26	962.00
253.53	904.00
253.79	940.00
254.06	928.00
254.33	894.00
254.60	876.00
254.86	894.00
255.13	945.00
255.40	963.00
255.66	913.00
255.93	933.00
256.20	951.00
256.46	956.00
256.73	922.00
257.00	927.00
257.26	938.00
257.53	950.00
257.80	926.00
258.07	933.00
258.33	983.00
258.60	955.00
258.87	897.00
259.13	922.00
259.40	909.00
259.67	947.00
259.93	908.00
260.20	943.00
260.47	955.00
260.73	917.00
261.00	892.00
261.27	921.00
261.53	944.00
261.80	938.00
262.07	886.00
262.34	912.00
262.60	883.00
262.87	917.00
263.14	898.00
263.40	944.00
263.67	920.00
263.94	918.00
264.20	913.00
264.47	886.00
264.74	889.00
265.00	915.00
265.27	892.00
265.54	910.00
265.80	926.00
266.07	948.00
266.34	898.00
266.60	901.00
266.87	924.00
267.14	954.00
267.40	901.00
267.67	881.00
267.94	915.00
268.20	906.00
268.47	874.00
268.74	881.00
269.00	916.00
269.27	923.00
269.54	859.00
269.80	887.00
270.07	937.00
270.33	909.00
270.60	895.00
270.87	933.00
271.13	911.00
271.40	930.00
271.67	866.00
271.93	873.00
272.20	930.00
272.47	908.00
272.73	876.00
273.00	910.00
273.27	917.00
273.53	962.00
273.80	912.00
274.07	905.00
274.33	927.00
274.60	945.00
274.86	904.00
275.13	918.00
275.40	903.00
275.66	938.00
275.93	906.00
276.20	898.00
276.46	905.00
276.73	897.00
277.00	898.00
277.26	921.00
277.53	957.00
277.79	913.00
278.06	889.00
278.33	942.00
278.59	939.00
278.86	901.00
279.13	901.00
279.39	914.00
279.66	955.00
279.93	956.00
280.19	892.00
280.46	910.00
280.72	905.00
280.99	931.00
281.26	901.00
281.52	903.00
281.79	926.00
282.05	927.00
282.32	902.00
282.59	907.00
282.85	956.00
283.12	937.00
283.39	900.00
283.65	920.00
283.92	938.00
284.18	939.00
284.45	903.00
284.72	912.00
284.98	913.00
285.25	908.00
285.51	921.00
285.78	922.00
286.05	921.00
286.31	920.00
286.58	878.00
286.84	890.00
287.11	918.00
287.38	937.00
287.64	915.00
287.91	890.00
288.17	912.00
288.44	923.00
288.71	880.00
288.97	908.00
289.24	938.00
289.50	920.00
289.77	904.00
290.04	873.00
290.30	881.00
290.57	937.00
290.83	887.00
291.10	907.00
291.37	922.00
291.63	906.00
291.90	930.00
292.16	907.00
292.43	917.00
292.70	895.00
292.96	861.00
293.23	887.00
293.49	901.00
293.76	922.00
294.02	903.00
294.29	905.00
294.56	921.00
294.82	918.00
295.09	901.00
295.35	892.00
295.62	949.00
295.89	957.00
296.15	887.00
296.42	885.00
296.68	910.00
296.95	916.00
297.21	918.00
297.48	904.00
297.75	921.00
298.01	955.00
298.28	904.00
298.54	907.00
298.81	945.00
299.07	928.00
299.34	881.00
299.61	908.00
299.87	961.00
300.14	930.00
300.40	923.00
300.67	909.00
300.93	934.00
301.20	956.00
301.46	887.00
301.73	905.00
302.00	936.00
302.26	914.00
302.53	918.00
302.79	905.00
303.06	919.00
303.32	954.00
303.59	883.00
303.85	885.00
304.12	904.00
304.39	920.00
304.65	891.00
304.92	890.00
305.18	914.00
305.45	946.00
305.71	901.00
305.98	910.00
306.24	908.00
306.51	904.00
306.77	904.00
307.04	916.00
307.31	933.00
307.57	934.00
307.84	868.00
308.10	896.00
308.37	901.00
308.63	911.00
308.90	876.00
309.16	892.00
309.43	942.00
309.69	916.00
309.96	911.00
310.22	901.00
310.49	925.00
310.76	927.00
311.02	878.00
311.29	884.00
311.55	918.00
311.82	922.00
312.08	901.00
312.35	913.00
312.61	938.00
312.88	917.00
313.14	865.00
313.41	876.00
313.67	884.00
313.94	937.00
314.20	912.00
314.47	899.00
314.73	899.00
315.00	903.00
315.26	877.00
315.53	925.00
315.79	920.00
316.06	917.00
316.32	898.00
316.59	924.00
316.85	923.00
317.12	949.00
317.39	872.00
317.65	879.00
317.92	913.00
318.18	912.00
318.45	897.00
318.71	940.00
318.98	957.00
319.24	927.00
319.51	901.00
319.77	908.00
320.04	909.00
320.30	920.00
320.57	882.00
320.83	905.00
321.10	891.00
321.36	913.00
321.63	878.00
321.89	893.00
322.16	942.00
322.42	933.00
322.69	882.00
322.95	886.00
323.22	915.00
323.48	935.00
323.75	892.00
324.01	901.00
324.28	920.00
324.54	928.00
324.80	897.00
325.07	923.00
325.33	937.00
325.60	902.00
325.86	877.00
326.13	909.00
326.39	916.00
326.66	893.00
326.92	838.00
327.19	885.00
327.45	967.00
327.72	957.00
327.98	897.00
328.25	887.00
328.51	931.00
328.78	920.00
329.04	878.00
329.31	907.00
329.57	913.00
329.84	908.00
330.10	888.00
330.37	903.00
330.63	926.00
330.89	962.00
331.16	887.00
331.42	897.00
331.69	936.00
331.95	935.00
332.22	918.00
332.48	933.00
332.75	916.00
333.01	886.00
333.28	875.00
333.54	887.00
333.81	917.00
334.07	946.00
334.34	916.00
334.60	923.00
334.86	963.00
335.13	966.00
335.39	911.00
335.66	902.00
335.92	938.00
336.19	944.00
336.45	869.00
336.72	888.00
336.98	909.00
337.24	918.00
337.51	878.00
337.77	884.00
338.04	911.00
338.30	923.00
338.57	890.00
338.83	902.00
339.10	932.00
339.36	942.00
339.63	893.00
339.89	888.00
340.15	920.00
340.42	936.00
340.68	926.00
340.95	917.00
341.21	918.00
341.48	913.00
341.74	881.00
342.00	877.00
342.27	934.00
342.53	937.00
342.80	895.00
343.06	913.00
343.33	912.00
343.59	938.00
343.85	886.00
344.12	906.00
344.38	969.00
344.65	958.00
344.91	896.00
345.18	907.00
345.44	911.00
345.70	910.00
345.97	855.00
346.23	894.00
346.50	921.00
346.76	933.00
347.03	927.00
347.29	907.00
347.55	905.00
347.82	909.00
348.08	878.00
348.35	895.00
348.61	973.00
348.87	951.00
349.14	899.00
349.40	884.00
349.67	907.00
349.93	898.00
350.20	893.00
350.46	905.00
350.72	933.00
350.99	913.00
351.25	889.00
351.52	904.00
351.78	904.00
352.04	920.00
352.31	905.00
352.57	913.00
352.84	907.00
353.10	910.00
353.36	905.00
353.63	886.00
353.89	919.00
354.16	935.00
354.42	916.00
354.68	907.00
354.95	951.00
355.21	935.00
355.48	887.00
355.74	917.00
356.00	950.00
356.27	963.00
356.53	892.00
356.80	901.00
357.06	914.00
357.32	911.00
357.59	907.00
357.85	926.00
358.11	971.00
358.38	942.00
358.64	889.00
358.91	918.00
359.17	919.00
359.43	945.00
359.70	916.00
359.96	920.00
360.22	943.00
360.49	915.00
360.75	891.00
361.02	876.00
361.28	884.00
361.54	916.00
361.81	873.00
362.07	907.00
362.33	913.00
362.60	920.00
362.86	908.00
363.13	929.00
363.39	958.00
363.65	957.00
363.92	870.00
364.18	868.00
364.44	913.00
364.71	912.00
364.97	896.00
365.24	907.00
365.50	925.00
365.76	948.00
366.03	913.00
366.29	921.00
366.55	941.00
366.82	929.00
367.08	872.00
367.34	916.00
367.61	949.00
367.87	929.00
368.13	907.00
368.40	902.00
368.66	946.00
368.93	944.00
369.19	870.00
369.45	884.00
369.72	922.00
369.98	907.00
370.24	885.00
370.51	886.00
370.77	936.00
371.03	940.00
371.30	903.00
371.56	921.00
371.82	943.00
372.09	916.00
372.35	911.00
372.61	908.00
372.88	908.00
373.14	934.00
373.40	900.00
373.67	897.00
373.93	917.00
374.19	932.00
374.46	888.00
374.72	875.00
374.98	920.00
375.25	939.00
375.51	919.00
375.77	928.00
376.04	940.00
376.30	944.00
376.56	877.00
376.83	897.00
377.09	934.00
377.35	931.00
377.62	903.00
377.88	886.00
378.14	895.00
378.41	918.00
378.67	891.00
378.93	880.00
379.20	927.00
379.46	889.00
379.72	890.00
379.99	895.00
380.25	891.00
380.51	882.00
380.77	883.00
381.04	905.00
381.30	931.00
381.56	943.00
381.83	915.00
382.09	902.00
382.35	895.00
382.62	938.00
382.88	929.00
383.14	913.00
383.41	922.00
383.67	917.00
383.93	917.00
384.20	916.00
384.46	929.00
384.72	949.00
384.98	887.00
385.25	908.00
385.51	930.00
385.77	921.00
386.04	880.00
386.30	855.00
386.56	932.00
386.82	977.00
387.09	910.00
387.35	927.00
387.61	996.00
387.88	940.00
388.14	912.00
388.40	914.00
388.67	910.00
388.93	907.00
389.19	886.00
389.45	885.00
389.72	910.00
389.98	945.00
390.24	903.00
390.51	891.00
390.77	930.00
391.03	940.00
391.29	885.00
391.56	895.00
391.82	933.00
392.08	942.00
392.35	893.00
392.61	891.00
392.87	927.00
393.13	942.00
393.40	895.00
393.66	888.00
393.92	911.00
394.18	920.00
394.45	870.00
394.71	875.00
394.97	900.00
395.24	918.00
395.50	883.00
395.76	926.00
396.02	933.00
396.29	937.00
396.55	878.00
396.81	849.00
397.07	896.00
397.34	883.00
397.60	869.00
397.86	885.00
398.12	893.00
398.39	932.00
398.65	902.00
398.91	896.00
399.17	906.00
399.44	872.00
399.70	845.00
399.96	877.00
400.22	896.00
400.49	946.00
400.75	902.00
401.01	888.00
401.27	908.00
401.54	937.00
401.80	889.00
402.06	885.00
402.32	917.00
402.59	894.00
402.85	879.00
403.11	901.00
403.37	902.00
403.64	942.00
403.90	892.00
404.16	907.00
404.42	911.00
404.69	900.00
404.95	895.00
405.21	863.00
405.47	896.00
405.74	926.00
406.00	892.00
406.26	899.00
406.52	917.00
406.79	925.00
407.05	877.00
407.31	890.00
407.57	887.00
407.83	922.00
408.10	859.00
408.36	888.00
408.62	915.00
408.88	905.00
409.15	885.00
409.41	872.00
409.67	896.00
409.93	939.00
410.20	908.00
410.46	890.00
410.72	882.00
410.98	911.00
411.24	895.00
411.51	895.00
411.77	900.00
412.03	901.00
412.29	908.00
412.55	915.00
412.82	887.00
413.08	931.00
413.34	914.00
413.60	891.00
413.87	911.00
414.13	931.00
414.39	869.00
414.65	894.00
414.91	931.00
415.18	899.00
415.44	877.00
415.70	865.00
415.96	905.00
416.22	911.00
416.49	877.00
416.75	903.00
417.01	912.00
417.27	910.00
417.53	899.00
417.80	885.00
418.06	917.00
418.32	925.00
418.58	883.00
418.84	880.00
419.11	918.00
419.37	927.00
419.63	893.00
419.89	892.00
420.15	922.00
420.42	907.00
420.68	876.00
420.94	883.00
421.20	909.00
421.46	920.00
421.72	902.00
421.99	898.00
422.25	920.00
422.51	924.00
422.77	922.00
423.03	901.00
423.30	904.00
423.56	926.00
423.82	926.00
424.08	916.00
424.34	932.00
424.60	920.00
424.87	884.00
425.13	871.00
425.39	885.00
425.65	903.00
425.91	884.00
426.18	914.00
426.44	928.00
426.70	894.00
426.96	845.00
427.22	837.00
427.48	878.00
427.75	890.00
428.01	854.00
428.27	886.00
428.53	912.00
428.79	885.00
429.05	891.00
429.32	899.00
429.58	949.00
429.84	886.00
430.10	890.00
430.36	907.00
430.62	923.00
430.88	915.00
431.15	894.00
431.41	905.00
431.67	910.00
431.93	893.00
432.19	858.00
432.45	889.00
432.72	922.00
432.98	913.00
433.24	910.00
433.50	993.00
433.76	910.00
434.02	890.00
434.28	857.00
434.55	883.00
434.81	925.00
435.07	929.00
435.33	874.00
435.59	890.00
435.85	904.00
436.11	920.00
436.38	866.00
436.64	864.00
436.90	901.00
437.16	907.00
437.42	893.00
437.68	881.00
437.94	905.00
438.21	924.00
438.47	919.00
438.73	913.00
438.99	908.00
439.25	911.00
439.51	889.00
439.77	892.00
440.03	893.00
440.30	933.00
440.56	906.00
440.82	925.00
441.08	928.00
441.34	921.00
441.60	879.00
441.86	897.00
442.12	906.00
442.39	904.00
442.65	875.00
442.91	890.00
443.17	891.00
443.43	910.00
443.69	904.00
443.95	871.00
444.21	903.00
444.47	926.00
444.74	864.00
445.00	895.00
445.26	904.00
445.52	912.00
445.78	886.00
446.04	890.00
446.30	947.00
446.56	925.00
446.82	868.00
447.09	882.00
447.35	913.00
447.61	901.00
447.87	872.00
448.13	895.00
448.39	956.00
448.65	933.00
448.91	884.00
449.17	873.00
449.43	878.00
449.70	909.00
449.96	877.00
450.22	889.00
450.48	903.00
450.74	949.00
451.00	910.00
451.26	897.00
451.52	898.00
451.78	888.00
452.04	884.00
452.31	924.00
452.57	914.00
452.83	882.00
453.09	878.00
453.35	879.00
453.61	893.00
453.87	902.00
454.13	898.00
454.39	905.00
454.65	957.00
454.91	953.00
455.17	884.00
455.44	889.00
455.70	923.00
455.96	907.00
456.22	871.00
456.48	884.00
456.74	898.00
457.00	877.00
457.26	847.00
457.52	881.00
457.78	890.00
458.04	919.00
458.30	883.00
458.56	905.00
458.82	910.00
459.09	882.00
459.35	841.00
459.61	869.00
459.87	906.00
460.13	927.00
460.39	878.00
460.65	871.00
460.91	930.00
461.17	907.00
461.43	884.00
461.69	884.00
461.95	903.00
462.21	885.00
462.47	890.00
462.73	921.00
462.99	928.00
463.26	923.00
463.52	868.00
463.78	849.00
464.04	895.00
464.30	897.00
464.56	861.00
464.82	888.00
465.08	949.00
465.34	951.00
465.60	898.00
465.86	894.00
466.12	900.00
466.38	890.00
466.64	877.00
466.90	894.00
467.16	909.00
467.42	917.00
467.68	868.00
467.94	885.00
468.20	932.00
468.46	899.00
468.72	886.00
468.98	902.00
469.25	908.00
469.51	881.00
469.77	912.00
470.03	904.00
470.29	889.00
470.55	896.00
470.81	889.00
471.07	897.00
471.33	912.00
471.59	935.00
471.85	895.00
472.11	898.00
472.37	926.00
472.63	906.00
472.89	915.00
473.15	895.00
473.41	910.00
473.67	887.00
473.93	846.00
474.19	854.00
474.45	870.00
474.71	897.00
474.97	859.00
475.23	866.00
475.49	886.00
475.75	884.00
476.01	887.00
476.27	918.00
476.53	941.00
476.79	920.00
477.05	883.00
477.31	875.00
477.57	912.00
477.83	896.00
478.09	847.00
478.35	897.00
478.61	961.00
478.87	917.00
479.13	866.00
479.39	890.00
479.65	919.00
479.91	920.00
480.17	891.00
480.43	909.00
480.69	893.00
480.95	912.00
481.21	870.00
481.47	868.00
481.73	891.00
481.99	894.00
482.25	866.00
482.51	857.00
482.77	919.00
483.03	914.00
483.29	902.00
483.55	892.00
483.81	916.00
484.07	920.00
484.33	872.00
484.59	877.00
484.85	932.00
485.11	915.00
485.37	878.00
485.63	882.00
485.89	901.00
486.15	893.00
486.41	874.00
486.67	893.00
486.93	914.00
487.19	897.00
487.45	869.00
487.71	881.00
487.97	932.00
488.23	931.00
488.49	856.00
488.75	871.00
489.01	900.00
489.27	924.00
489.53	890.00
489.79	885.00
490.05	907.00
490.31	914.00
490.57	925.00
490.83	953.00
491.08	910.00
491.34	890.00
491.60	870.00
491.86	908.00
492.12	955.00
492.38	943.00
492.64	881.00
492.90	870.00
493.16	900.00
493.42	883.00
493.68	869.00
493.94	891.00
494.20	885.00
494.46	902.00
494.72	868.00
494.98	868.00
495.24	886.00
495.50	909.00
495.76	903.00
496.02	909.00
496.28	923.00
496.54	935.00
496.80	890.00
497.05	860.00
497.31	890.00
497.57	923.00
497.83	875.00
498.09	918.00
498.35	945.00
498.61	934.00
498.87	889.00
499.13	900.00
499.39	909.00
499.65	902.00
499.91	901.00
500.17	887.00
500.43	966.00
500.69	996.00
500.95	899.00
501.20	920.00
501.46	921.00
501.72	919.00
501.98	905.00
502.24	917.00
502.50	956.00
502.76	912.00
503.02	889.00
503.28	875.00
503.54	935.00
503.80	957.00
504.06	929.00
504.32	926.00
504.58	916.00
504.83	904.00
505.09	873.00
505.35	893.00
505.61	888.00
505.87	899.00
506.13	897.00
506.39	866.00
506.65	926.00
506.91	950.00
507.17	898.00
507.43	877.00
507.68	890.00
507.94	921.00
508.20	875.00
508.46	868.00
508.72	933.00
508.98	945.00
509.24	884.00
509.50	917.00
509.76	901.00
510.02	899.00
510.28	858.00
510.53	879.00
510.79	906.00
511.05	908.00
511.31	882.00
511.57	881.00
511.83	902.00
512.09	930.00
512.35	884.00
512.61	902.00
512.87	904.00
513.12	911.00
513.38	869.00
513.64	909.00
513.90	919.00
514.16	934.00
514.42	892.00
514.68	906.00
514.94	930.00
515.20	922.00
515.45	869.00
515.71	869.00
515.97	894.00
516.23	909.00
516.49	888.00
516.75	906.00
517.01	912.00
517.27	897.00
517.53	875.00
517.78	888.00
518.04	886.00
518.30	882.00
518.56	861.00
518.82	917.00
519.08	942.00
519.34	891.00
519.60	887.00
519.85	908.00
520.11	904.00
520.37	913.00
520.63	911.00
520.89	911.00
521.15	921.00
521.41	901.00
521.66	881.00
521.92	899.00
522.18	934.00
522.44	930.00
522.70	886.00
522.96	887.00
523.22	917.00
523.48	898.00
523.73	873.00
523.99	871.00
524.25	942.00
524.51	916.00
524.77	873.00
525.03	883.00
525.29	914.00
525.54	933.00
525.80	879.00
526.06	866.00
526.32	888.00
526.58	893.00
526.84	875.00
527.09	876.00
527.35	886.00
527.61	884.00
527.87	871.00
528.13	894.00
528.39	886.00
528.65	897.00
528.90	850.00
529.16	871.00
529.42	886.00
529.68	884.00
529.94	870.00
530.20	882.00
530.45	876.00
530.71	918.00
530.97	876.00
531.23	884.00
531.49	903.00
531.75	901.00
532.00	884.00
532.26	866.00
532.52	899.00
532.78	894.00
533.04	871.00
533.30	876.00
533.55	892.00
533.81	901.00
534.07	854.00
534.33	877.00
534.59	909.00
534.85	904.00
535.10	850.00
535.36	861.00
535.62	903.00
535.88	893.00
