SpectraSuite Data File
++++++++++++++++++++++++++++++++++++
Date: Fri Dec 06 16:09:54 CET 2024
User: student
Dark Spectrum Present: No
Reference Spectrum Present: No
Number of Sampled Component Spectra: 1
Spectrometers: HR4C155
Integration Time (usec): 100000 (HR4C155)
Spectra Averaged: 1 (HR4C155)
Boxcar Smoothing: 0 (HR4C155)
Correct for Electrical Dark: No (HR4C155)
Strobe/Lamp Enabled: No (HR4C155)
Correct for Detector Non-linearity: No (HR4C155)
Correct for Stray Light: No (HR4C155)
Number of Pixels in Processed Spectrum: 3648
>>>>>Begin Processed Spectral Data<<<<<
195.39	725.00
195.66	725.00
195.93	725.00
196.20	665.00
196.46	732.00
196.73	851.00
197.00	844.00
197.27	822.00
197.54	868.00
197.81	880.00
198.08	862.00
198.35	896.00
198.61	916.00
198.88	879.00
199.15	876.00
199.42	895.00
199.69	889.00
199.96	863.00
200.23	875.00
200.49	881.00
200.76	900.00
201.03	887.00
201.30	881.00
201.57	934.00
201.84	946.00
202.11	905.00
202.38	934.00
202.64	924.00
202.91	940.00
203.18	883.00
203.45	939.00
203.72	1014.00
203.99	949.00
204.25	936.00
204.52	922.00
204.79	944.00
205.06	938.00
205.33	888.00
205.60	903.00
205.87	939.00
206.13	938.00
206.40	903.00
206.67	879.00
206.94	917.00
207.21	931.00
207.48	907.00
207.75	904.00
208.01	939.00
208.28	941.00
208.55	896.00
208.82	915.00
209.09	924.00
209.36	957.00
209.62	923.00
209.89	915.00
210.16	934.00
210.43	971.00
210.70	904.00
210.97	925.00
211.23	955.00
211.50	964.00
211.77	916.00
212.04	927.00
212.31	930.00
212.58	955.00
212.84	923.00
213.11	921.00
213.38	893.00
213.65	929.00
213.92	893.00
214.18	914.00
214.45	970.00
214.72	954.00
214.99	907.00
215.26	915.00
215.53	900.00
215.79	923.00
216.06	937.00
216.33	935.00
216.60	898.00
216.87	948.00
217.13	862.00
217.40	889.00
217.67	936.00
217.94	973.00
218.21	904.00
218.48	949.00
218.74	984.00
219.01	945.00
219.28	876.00
219.55	886.00
219.82	918.00
220.08	952.00
220.35	902.00
220.62	926.00
220.89	955.00
221.16	979.00
221.42	925.00
221.69	936.00
221.96	954.00
222.23	963.00
222.50	946.00
222.76	937.00
223.03	917.00
223.30	907.00
223.57	889.00
223.84	885.00
224.10	902.00
224.37	941.00
224.64	898.00
224.91	901.00
225.18	962.00
225.44	956.00
225.71	890.00
225.98	927.00
226.25	949.00
226.51	967.00
226.78	909.00
227.05	901.00
227.32	922.00
227.59	932.00
227.85	930.00
228.12	912.00
228.39	946.00
228.66	955.00
228.92	953.00
229.19	930.00
229.46	950.00
229.73	922.00
230.00	917.00
230.26	940.00
230.53	953.00
230.80	934.00
231.07	879.00
231.33	884.00
231.60	938.00
231.87	943.00
232.14	911.00
232.41	950.00
232.67	927.00
232.94	933.00
233.21	897.00
233.48	917.00
233.74	927.00
234.01	919.00
234.28	883.00
234.55	903.00
234.81	906.00
235.08	961.00
235.35	899.00
235.62	933.00
235.88	936.00
236.15	961.00
236.42	918.00
236.69	918.00
236.95	938.00
237.22	931.00
237.49	907.00
237.76	902.00
238.02	941.00
238.29	949.00
238.56	916.00
238.83	906.00
239.09	902.00
239.36	948.00
239.63	921.00
239.90	930.00
240.16	962.00
240.43	993.00
240.70	920.00
240.97	905.00
241.23	907.00
241.50	931.00
241.77	922.00
242.04	916.00
242.30	889.00
242.57	914.00
242.84	889.00
243.11	898.00
243.37	885.00
243.64	965.00
243.91	914.00
244.18	919.00
244.44	906.00
244.71	907.00
244.98	902.00
245.24	905.00
245.51	936.00
245.78	964.00
246.05	889.00
246.31	893.00
246.58	946.00
246.85	920.00
247.12	893.00
247.38	935.00
247.65	945.00
247.92	940.00
248.18	913.00
248.45	894.00
248.72	915.00
248.99	932.00
249.25	882.00
249.52	890.00
249.79	926.00
250.05	939.00
250.32	904.00
250.59	898.00
250.86	918.00
251.12	928.00
251.39	895.00
251.66	907.00
251.92	938.00
252.19	959.00
252.46	902.00
252.73	940.00
252.99	962.00
253.26	974.00
253.53	902.00
253.79	933.00
254.06	934.00
254.33	908.00
254.60	873.00
254.86	901.00
255.13	944.00
255.40	968.00
255.66	902.00
255.93	913.00
256.20	936.00
256.46	953.00
256.73	903.00
257.00	907.00
257.26	934.00
257.53	949.00
257.80	918.00
258.07	927.00
258.33	970.00
258.60	953.00
258.87	894.00
259.13	914.00
259.40	915.00
259.67	965.00
259.93	919.00
260.20	943.00
260.47	957.00
260.73	921.00
261.00	912.00
261.27	910.00
261.53	942.00
261.80	927.00
262.07	872.00
262.34	903.00
262.60	906.00
262.87	922.00
263.14	892.00
263.40	936.00
263.67	907.00
263.94	928.00
264.20	905.00
264.47	890.00
264.74	915.00
265.00	911.00
265.27	875.00
265.54	891.00
265.80	925.00
266.07	965.00
266.34	913.00
266.60	915.00
266.87	934.00
267.14	938.00
267.40	882.00
267.67	881.00
267.94	938.00
268.20	924.00
268.47	876.00
268.74	875.00
269.00	917.00
269.27	904.00
269.54	868.00
269.80	878.00
270.07	947.00
270.33	912.00
270.60	898.00
270.87	925.00
271.13	917.00
271.40	924.00
271.67	865.00
271.93	867.00
272.20	914.00
272.47	901.00
272.73	865.00
273.00	904.00
273.27	907.00
273.53	953.00
273.80	911.00
274.07	902.00
274.33	907.00
274.60	941.00
274.86	913.00
275.13	920.00
275.40	914.00
275.66	954.00
275.93	899.00
276.20	891.00
276.46	899.00
276.73	895.00
277.00	901.00
277.26	930.00
277.53	946.00
277.79	919.00
278.06	898.00
278.33	951.00
278.59	936.00
278.86	909.00
279.13	905.00
279.39	921.00
279.66	930.00
279.93	930.00
280.19	882.00
280.46	881.00
280.72	910.00
280.99	942.00
281.26	892.00
281.52	888.00
281.79	936.00
282.05	932.00
282.32	888.00
282.59	904.00
282.85	954.00
283.12	941.00
283.39	908.00
283.65	915.00
283.92	927.00
284.18	953.00
284.45	907.00
284.72	909.00
284.98	910.00
285.25	905.00
285.51	930.00
285.78	916.00
286.05	914.00
286.31	912.00
286.58	871.00
286.84	889.00
287.11	913.00
287.38	926.00
287.64	927.00
287.91	906.00
288.17	936.00
288.44	945.00
288.71	886.00
288.97	901.00
289.24	924.00
289.50	910.00
289.77	905.00
290.04	878.00
290.30	908.00
290.57	954.00
290.83	898.00
291.10	902.00
291.37	930.00
291.63	901.00
291.90	927.00
292.16	914.00
292.43	923.00
292.70	891.00
292.96	852.00
293.23	876.00
293.49	900.00
293.76	943.00
294.02	900.00
294.29	893.00
294.56	927.00
294.82	920.00
295.09	889.00
295.35	883.00
295.62	931.00
295.89	950.00
296.15	896.00
296.42	906.00
296.68	909.00
296.95	932.00
297.21	917.00
297.48	890.00
297.75	915.00
298.01	952.00
298.28	910.00
298.54	922.00
298.81	918.00
299.07	932.00
299.34	872.00
299.61	898.00
299.87	934.00
300.14	924.00
300.40	926.00
300.67	912.00
300.93	935.00
301.20	957.00
301.46	884.00
301.73	912.00
302.00	929.00
302.26	901.00
302.53	916.00
302.79	912.00
303.06	939.00
303.32	975.00
303.59	897.00
303.85	886.00
304.12	909.00
304.39	927.00
304.65	887.00
304.92	903.00
305.18	926.00
305.45	943.00
305.71	912.00
305.98	915.00
306.24	924.00
306.51	931.00
306.77	894.00
307.04	906.00
307.31	946.00
307.57	953.00
307.84	882.00
308.10	893.00
308.37	888.00
308.63	906.00
308.90	897.00
309.16	905.00
309.43	933.00
309.69	904.00
309.96	902.00
310.22	904.00
310.49	923.00
310.76	931.00
311.02	855.00
311.29	884.00
311.55	902.00
311.82	908.00
312.08	903.00
312.35	931.00
312.61	956.00
312.88	934.00
313.14	891.00
313.41	875.00
313.67	889.00
313.94	917.00
314.20	893.00
314.47	905.00
314.73	906.00
315.00	913.00
315.26	897.00
315.53	932.00
315.79	909.00
316.06	907.00
316.32	880.00
316.59	903.00
316.85	925.00
317.12	943.00
317.39	875.00
317.65	879.00
317.92	906.00
318.18	929.00
318.45	919.00
318.71	949.00
318.98	941.00
319.24	921.00
319.51	908.00
319.77	893.00
320.04	905.00
320.30	906.00
320.57	887.00
320.83	882.00
321.10	889.00
321.36	914.00
321.63	882.00
321.89	894.00
322.16	949.00
322.42	935.00
322.69	890.00
322.95	881.00
323.22	931.00
323.48	940.00
323.75	875.00
324.01	910.00
324.28	915.00
324.54	934.00
324.80	908.00
325.07	908.00
325.33	931.00
325.60	900.00
325.86	873.00
326.13	886.00
326.39	912.00
326.66	887.00
326.92	852.00
327.19	898.00
327.45	941.00
327.72	945.00
327.98	892.00
328.25	890.00
328.51	916.00
328.78	927.00
329.04	886.00
329.31	910.00
329.57	930.00
329.84	905.00
330.10	884.00
330.37	909.00
330.63	935.00
330.89	973.00
331.16	902.00
331.42	889.00
331.69	937.00
331.95	918.00
332.22	899.00
332.48	941.00
332.75	928.00
333.01	892.00
333.28	885.00
333.54	901.00
333.81	925.00
334.07	944.00
334.34	899.00
334.60	905.00
334.86	956.00
335.13	962.00
335.39	912.00
335.66	904.00
335.92	928.00
336.19	934.00
336.45	854.00
336.72	894.00
336.98	907.00
337.24	922.00
337.51	882.00
337.77	903.00
338.04	920.00
338.30	928.00
338.57	899.00
338.83	919.00
339.10	927.00
339.36	918.00
339.63	897.00
339.89	867.00
340.15	901.00
340.42	943.00
340.68	916.00
340.95	917.00
341.21	911.00
341.48	913.00
341.74	853.00
342.00	881.00
342.27	949.00
342.53	928.00
342.80	883.00
343.06	900.00
343.33	919.00
343.59	933.00
343.85	882.00
344.12	924.00
344.38	983.00
344.65	961.00
344.91	899.00
345.18	897.00
345.44	912.00
345.70	894.00
345.97	864.00
346.23	905.00
346.50	944.00
346.76	919.00
347.03	911.00
347.29	900.00
347.55	911.00
347.82	911.00
348.08	867.00
348.35	882.00
348.61	955.00
348.87	941.00
349.14	887.00
349.40	879.00
349.67	927.00
349.93	935.00
350.20	908.00
350.46	899.00
350.72	927.00
350.99	910.00
351.25	896.00
351.52	895.00
351.78	895.00
352.04	916.00
352.31	917.00
352.57	916.00
352.84	889.00
353.10	898.00
353.36	902.00
353.63	886.00
353.89	899.00
354.16	922.00
354.42	900.00
354.68	901.00
354.95	951.00
355.21	937.00
355.48	873.00
355.74	916.00
356.00	958.00
356.27	963.00
356.53	886.00
356.80	899.00
357.06	929.00
357.32	951.00
357.59	926.00
357.85	915.00
358.11	951.00
358.38	939.00
358.64	913.00
358.91	909.00
359.17	924.00
359.43	928.00
359.70	900.00
359.96	914.00
360.22	941.00
360.49	920.00
360.75	895.00
361.02	880.00
361.28	913.00
361.54	932.00
361.81	881.00
362.07	897.00
362.33	902.00
362.60	893.00
362.86	892.00
363.13	922.00
363.39	937.00
363.65	957.00
363.92	859.00
364.18	853.00
364.44	917.00
364.71	929.00
364.97	881.00
365.24	886.00
365.50	931.00
365.76	951.00
366.03	906.00
366.29	919.00
366.55	929.00
366.82	912.00
367.08	872.00
367.34	892.00
367.61	932.00
367.87	927.00
368.13	911.00
368.40	918.00
368.66	974.00
368.93	936.00
369.19	864.00
369.45	886.00
369.72	919.00
369.98	914.00
370.24	887.00
370.51	886.00
370.77	938.00
371.03	917.00
371.30	911.00
371.56	935.00
371.82	946.00
372.09	917.00
372.35	907.00
372.61	917.00
372.88	933.00
373.14	926.00
373.40	899.00
373.67	904.00
373.93	929.00
374.19	950.00
374.46	889.00
374.72	884.00
374.98	921.00
375.25	922.00
375.51	908.00
375.77	911.00
376.04	927.00
376.30	923.00
376.56	874.00
376.83	890.00
377.09	932.00
377.35	929.00
377.62	908.00
377.88	898.00
378.14	893.00
378.41	922.00
378.67	898.00
378.93	890.00
379.20	939.00
379.46	894.00
379.72	872.00
379.99	870.00
380.25	891.00
380.51	882.00
380.77	884.00
381.04	905.00
381.30	932.00
381.56	941.00
381.83	902.00
382.09	896.00
382.35	913.00
382.62	941.00
382.88	903.00
383.14	895.00
383.41	910.00
383.67	920.00
383.93	909.00
384.20	895.00
384.46	904.00
384.72	933.00
384.98	880.00
385.25	915.00
385.51	932.00
385.77	915.00
386.04	879.00
386.30	869.00
386.56	932.00
386.82	974.00
387.09	909.00
387.35	918.00
387.61	993.00
387.88	946.00
388.14	910.00
388.40	909.00
388.67	914.00
388.93	910.00
389.19	897.00
389.45	894.00
389.72	918.00
389.98	941.00
390.24	889.00
390.51	897.00
390.77	940.00
391.03	947.00
391.29	896.00
391.56	906.00
391.82	939.00
392.08	966.00
392.35	901.00
392.61	895.00
392.87	919.00
393.13	936.00
393.40	885.00
393.66	888.00
393.92	911.00
394.18	928.00
394.45	882.00
394.71	893.00
394.97	902.00
395.24	879.00
395.50	874.00
395.76	906.00
396.02	948.00
396.29	930.00
396.55	868.00
396.81	843.00
397.07	896.00
397.34	885.00
397.60	872.00
397.86	881.00
398.12	884.00
398.39	945.00
398.65	906.00
398.91	889.00
399.17	910.00
399.44	853.00
399.70	833.00
399.96	869.00
400.22	910.00
400.49	935.00
400.75	894.00
401.01	904.00
401.27	906.00
401.54	935.00
401.80	890.00
402.06	875.00
402.32	909.00
402.59	913.00
402.85	876.00
403.11	892.00
403.37	896.00
403.64	925.00
403.90	895.00
404.16	892.00
404.42	916.00
404.69	913.00
404.95	880.00
405.21	847.00
405.47	897.00
405.74	940.00
406.00	906.00
406.26	883.00
406.52	911.00
406.79	953.00
407.05	891.00
407.31	895.00
407.57	892.00
407.83	939.00
408.10	859.00
408.36	865.00
408.62	900.00
408.88	910.00
409.15	882.00
409.41	848.00
409.67	873.00
409.93	934.00
410.20	905.00
410.46	896.00
410.72	895.00
410.98	902.00
411.24	892.00
411.51	893.00
411.77	904.00
412.03	925.00
412.29	914.00
412.55	925.00
412.82	905.00
413.08	932.00
413.34	913.00
413.60	902.00
413.87	884.00
414.13	915.00
414.39	872.00
414.65	889.00
414.91	922.00
415.18	882.00
415.44	869.00
415.70	869.00
415.96	894.00
416.22	899.00
416.49	878.00
416.75	880.00
417.01	912.00
417.27	914.00
417.53	892.00
417.80	901.00
418.06	914.00
418.32	932.00
418.58	859.00
418.84	868.00
419.11	921.00
419.37	928.00
419.63	882.00
419.89	892.00
420.15	905.00
420.42	914.00
420.68	868.00
420.94	894.00
421.20	896.00
421.46	907.00
421.72	891.00
421.99	897.00
422.25	918.00
422.51	930.00
422.77	896.00
423.03	902.00
423.30	901.00
423.56	936.00
423.82	919.00
424.08	903.00
424.34	918.00
424.60	926.00
424.87	890.00
425.13	878.00
425.39	888.00
425.65	905.00
425.91	880.00
426.18	895.00
426.44	881.00
426.70	871.00
426.96	846.00
427.22	853.00
427.48	868.00
427.75	891.00
428.01	873.00
428.27	898.00
428.53	944.00
428.79	900.00
429.05	868.00
429.32	889.00
429.58	928.00
429.84	887.00
430.10	911.00
430.36	930.00
430.62	937.00
430.88	931.00
431.15	900.00
431.41	909.00
431.67	906.00
431.93	885.00
432.19	860.00
432.45	882.00
432.72	898.00
432.98	909.00
433.24	909.00
433.50	997.00
433.76	909.00
434.02	880.00
434.28	860.00
434.55	901.00
434.81	923.00
435.07	913.00
435.33	860.00
435.59	868.00
435.85	902.00
436.11	931.00
436.38	876.00
436.64	886.00
436.90	914.00
437.16	901.00
437.42	892.00
437.68	898.00
437.94	934.00
438.21	917.00
438.47	899.00
438.73	892.00
438.99	908.00
439.25	918.00
439.51	869.00
439.77	877.00
440.03	889.00
440.30	914.00
440.56	897.00
440.82	942.00
441.08	945.00
441.34	913.00
441.60	868.00
441.86	912.00
442.12	932.00
442.39	912.00
442.65	882.00
442.91	884.00
443.17	901.00
443.43	923.00
443.69	902.00
443.95	890.00
444.21	888.00
444.47	928.00
444.74	873.00
445.00	887.00
445.26	886.00
445.52	910.00
445.78	899.00
446.04	898.00
446.30	944.00
446.56	927.00
446.82	879.00
447.09	884.00
447.35	920.00
447.61	905.00
447.87	894.00
448.13	892.00
448.39	937.00
448.65	937.00
448.91	884.00
449.17	897.00
449.43	900.00
449.70	911.00
449.96	868.00
450.22	870.00
450.48	897.00
450.74	945.00
451.00	889.00
451.26	911.00
451.52	909.00
451.78	891.00
452.04	867.00
452.31	891.00
452.57	906.00
452.83	897.00
453.09	880.00
453.35	875.00
453.61	903.00
453.87	901.00
454.13	899.00
454.39	899.00
454.65	958.00
454.91	946.00
455.17	883.00
455.44	898.00
455.70	933.00
455.96	915.00
456.22	870.00
456.48	878.00
456.74	893.00
457.00	858.00
457.26	826.00
457.52	885.00
457.78	892.00
458.04	921.00
458.30	873.00
458.56	887.00
458.82	897.00
459.09	887.00
459.35	851.00
459.61	872.00
459.87	911.00
460.13	932.00
460.39	885.00
460.65	883.00
460.91	932.00
461.17	900.00
461.43	845.00
461.69	879.00
461.95	914.00
462.21	890.00
462.47	894.00
462.73	920.00
462.99	945.00
463.26	925.00
463.52	860.00
463.78	862.00
464.04	873.00
464.30	891.00
464.56	861.00
464.82	876.00
465.08	926.00
465.34	938.00
465.60	900.00
465.86	889.00
466.12	889.00
466.38	883.00
466.64	868.00
466.90	886.00
467.16	912.00
467.42	919.00
467.68	876.00
467.94	887.00
468.20	929.00
468.46	918.00
468.72	865.00
468.98	894.00
469.25	909.00
469.51	872.00
469.77	878.00
470.03	874.00
470.29	905.00
470.55	923.00
470.81	897.00
471.07	895.00
471.33	908.00
471.59	920.00
471.85	870.00
472.11	897.00
472.37	910.00
472.63	892.00
472.89	891.00
473.15	888.00
473.41	906.00
473.67	879.00
473.93	849.00
474.19	849.00
474.45	861.00
474.71	891.00
474.97	873.00
475.23	877.00
475.49	890.00
475.75	895.00
476.01	891.00
476.27	916.00
476.53	941.00
476.79	929.00
477.05	890.00
477.31	882.00
477.57	917.00
477.83	916.00
478.09	860.00
478.35	884.00
478.61	930.00
478.87	915.00
479.13	860.00
479.39	899.00
479.65	930.00
479.91	938.00
480.17	893.00
480.43	897.00
480.69	897.00
480.95	911.00
481.21	880.00
481.47	902.00
481.73	908.00
481.99	908.00
482.25	878.00
482.51	874.00
482.77	937.00
483.03	914.00
483.29	906.00
483.55	904.00
483.81	929.00
484.07	925.00
484.33	873.00
484.59	892.00
484.85	925.00
485.11	913.00
485.37	883.00
485.63	875.00
485.89	883.00
486.15	863.00
486.41	862.00
486.67	897.00
486.93	905.00
487.19	893.00
487.45	872.00
487.71	882.00
487.97	928.00
488.23	928.00
488.49	875.00
488.75	853.00
489.01	888.00
489.27	927.00
489.53	888.00
489.79	881.00
490.05	892.00
490.31	914.00
490.57	914.00
490.83	928.00
491.08	903.00
491.34	878.00
491.60	861.00
491.86	902.00
492.12	954.00
492.38	946.00
492.64	884.00
492.90	875.00
493.16	927.00
493.42	905.00
493.68	868.00
493.94	903.00
494.20	887.00
494.46	890.00
494.72	882.00
494.98	888.00
495.24	900.00
495.50	892.00
495.76	902.00
496.02	914.00
496.28	904.00
496.54	920.00
496.80	886.00
497.05	861.00
497.31	918.00
497.57	912.00
497.83	867.00
498.09	891.00
498.35	933.00
498.61	928.00
498.87	915.00
499.13	895.00
499.39	916.00
499.65	915.00
499.91	890.00
500.17	874.00
500.43	968.00
500.69	986.00
500.95	869.00
501.20	906.00
501.46	919.00
501.72	927.00
501.98	909.00
502.24	904.00
502.50	932.00
502.76	899.00
503.02	889.00
503.28	888.00
503.54	941.00
503.80	945.00
504.06	909.00
504.32	905.00
504.58	903.00
504.83	895.00
505.09	858.00
505.35	906.00
505.61	888.00
505.87	902.00
506.13	892.00
506.39	884.00
506.65	920.00
506.91	944.00
507.17	884.00
507.43	874.00
507.68	895.00
507.94	913.00
508.20	886.00
508.46	865.00
508.72	911.00
508.98	927.00
509.24	885.00
509.50	912.00
509.76	890.00
510.02	912.00
510.28	876.00
510.53	880.00
510.79	908.00
511.05	909.00
511.31	878.00
511.57	890.00
511.83	915.00
512.09	936.00
512.35	881.00
512.61	896.00
512.87	906.00
513.12	923.00
513.38	877.00
513.64	893.00
513.90	903.00
514.16	927.00
514.42	892.00
514.68	914.00
514.94	948.00
515.20	919.00
515.45	879.00
515.71	881.00
515.97	919.00
516.23	900.00
516.49	877.00
516.75	888.00
517.01	914.00
517.27	905.00
517.53	862.00
517.78	865.00
518.04	896.00
518.30	906.00
518.56	881.00
518.82	913.00
519.08	940.00
519.34	892.00
519.60	870.00
519.85	899.00
520.11	898.00
520.37	894.00
520.63	896.00
520.89	917.00
521.15	898.00
521.41	898.00
521.66	874.00
521.92	893.00
522.18	924.00
522.44	914.00
522.70	886.00
522.96	866.00
523.22	925.00
523.48	905.00
523.73	886.00
523.99	883.00
524.25	938.00
524.51	918.00
524.77	882.00
525.03	885.00
525.29	907.00
525.54	908.00
525.80	880.00
526.06	881.00
526.32	877.00
526.58	883.00
526.84	869.00
527.09	873.00
527.35	876.00
527.61	888.00
527.87	879.00
528.13	902.00
528.39	904.00
528.65	900.00
528.90	844.00
529.16	864.00
529.42	875.00
529.68	899.00
529.94	872.00
530.20	874.00
530.45	884.00
530.71	904.00
530.97	880.00
531.23	891.00
531.49	897.00
531.75	903.00
532.00	892.00
532.26	882.00
532.52	911.00
532.78	901.00
533.04	877.00
533.30	889.00
533.55	900.00
533.81	890.00
534.07	855.00
534.33	885.00
534.59	906.00
534.85	925.00
535.10	878.00
535.36	872.00
535.62	908.00
535.88	901.00
