SpectraSuite Data File
++++++++++++++++++++++++++++++++++++
Date: Fri Dec 06 16:14:17 CET 2024
User: student
Dark Spectrum Present: Yes
Reference Spectrum Present: Yes
Number of Sampled Component Spectra: 1
Spectrometers: HR4C155
Integration Time (usec): 100000 (HR4C155)
Spectra Averaged: 1 (HR4C155)
Boxcar Smoothing: 0 (HR4C155)
Correct for Electrical Dark: No (HR4C155)
Strobe/Lamp Enabled: No (HR4C155)
Correct for Detector Non-linearity: No (HR4C155)
Correct for Stray Light: No (HR4C155)
Number of Pixels in Processed Spectrum: 3648
>>>>>Begin Processed Spectral Data<<<<<
195.39	723.00
195.66	723.00
195.93	723.00
196.20	669.00
196.46	715.00
196.73	846.00
197.00	860.00
197.27	847.00
197.54	863.00
197.81	879.00
198.08	863.00
198.35	884.00
198.61	893.00
198.88	877.00
199.15	853.00
199.42	859.00
199.69	883.00
199.96	864.00
200.23	888.00
200.49	902.00
200.76	906.00
201.03	882.00
201.30	882.00
201.57	941.00
201.84	947.00
202.11	912.00
202.38	922.00
202.64	917.00
202.91	941.00
203.18	885.00
203.45	941.00
203.72	1006.00
203.99	929.00
204.25	919.00
204.52	911.00
204.79	915.00
205.06	926.00
205.33	884.00
205.60	912.00
205.87	941.00
206.13	950.00
206.40	910.00
206.67	902.00
206.94	940.00
207.21	939.00
207.48	913.00
207.75	901.00
208.01	960.00
208.28	952.00
208.55	890.00
208.82	927.00
209.09	932.00
209.36	940.00
209.62	907.00
209.89	935.00
210.16	965.00
210.43	992.00
210.70	898.00
210.97	906.00
211.23	964.00
211.50	973.00
211.77	923.00
212.04	932.00
212.31	926.00
212.58	955.00
212.84	928.00
213.11	932.00
213.38	887.00
213.65	914.00
213.92	913.00
214.18	918.00
214.45	965.00
214.72	948.00
214.99	886.00
215.26	907.00
215.53	895.00
215.79	931.00
216.06	924.00
216.33	919.00
216.60	897.00
216.87	937.00
217.13	883.00
217.40	915.00
217.67	933.00
217.94	965.00
218.21	894.00
218.48	938.00
218.74	1001.00
219.01	955.00
219.28	883.00
219.55	901.00
219.82	932.00
220.08	950.00
220.35	908.00
220.62	927.00
220.89	953.00
221.16	973.00
221.42	938.00
221.69	929.00
221.96	948.00
222.23	967.00
222.50	946.00
222.76	941.00
223.03	939.00
223.30	911.00
223.57	903.00
223.84	898.00
224.10	902.00
224.37	933.00
224.64	898.00
224.91	913.00
225.18	960.00
225.44	964.00
225.71	924.00
225.98	948.00
226.25	969.00
226.51	961.00
226.78	901.00
227.05	924.00
227.32	938.00
227.59	922.00
227.85	918.00
228.12	919.00
228.39	970.00
228.66	973.00
228.92	964.00
229.19	946.00
229.46	943.00
229.73	913.00
230.00	902.00
230.26	932.00
230.53	961.00
230.80	947.00
231.07	876.00
231.33	891.00
231.60	937.00
231.87	964.00
232.14	913.00
232.41	952.00
232.67	937.00
232.94	937.00
233.21	899.00
233.48	927.00
233.74	941.00
234.01	932.00
234.28	899.00
234.55	933.00
234.81	928.00
235.08	970.00
235.35	922.00
235.62	896.00
235.88	917.00
236.15	957.00
236.42	931.00
236.69	929.00
236.95	945.00
237.22	936.00
237.49	904.00
237.76	894.00
238.02	948.00
238.29	965.00
238.56	896.00
238.83	897.00
239.09	932.00
239.36	967.00
239.63	921.00
239.90	914.00
240.16	961.00
240.43	1001.00
240.70	909.00
240.97	918.00
241.23	909.00
241.50	926.00
241.77	910.00
242.04	921.00
242.30	900.00
242.57	921.00
242.84	886.00
243.11	912.00
243.37	887.00
243.64	955.00
243.91	917.00
244.18	917.00
244.44	897.00
244.71	894.00
244.98	907.00
245.24	904.00
245.51	948.00
245.78	969.00
246.05	904.00
246.31	909.00
246.58	934.00
246.85	911.00
247.12	898.00
247.38	924.00
247.65	926.00
247.92	951.00
248.18	912.00
248.45	899.00
248.72	924.00
248.99	939.00
249.25	893.00
249.52	897.00
249.79	930.00
250.05	921.00
250.32	889.00
250.59	900.00
250.86	899.00
251.12	913.00
251.39	893.00
251.66	926.00
251.92	947.00
252.19	944.00
252.46	892.00
252.73	943.00
252.99	953.00
253.26	952.00
253.53	907.00
253.79	924.00
254.06	932.00
254.33	919.00
254.60	883.00
254.86	888.00
255.13	925.00
255.40	955.00
255.66	910.00
255.93	919.00
256.20	933.00
256.46	945.00
256.73	918.00
257.00	925.00
257.26	943.00
257.53	930.00
257.80	907.00
258.07	917.00
258.33	954.00
258.60	936.00
258.87	875.00
259.13	909.00
259.40	907.00
259.67	949.00
259.93	908.00
260.20	931.00
260.47	957.00
260.73	923.00
261.00	897.00
261.27	916.00
261.53	943.00
261.80	943.00
262.07	884.00
262.34	917.00
262.60	892.00
262.87	926.00
263.14	901.00
263.40	924.00
263.67	911.00
263.94	922.00
264.20	901.00
264.47	895.00
264.74	901.00
265.00	902.00
265.27	880.00
265.54	901.00
265.80	945.00
266.07	951.00
266.34	888.00
266.60	912.00
266.87	939.00
267.14	940.00
267.40	891.00
267.67	890.00
267.94	955.00
268.20	933.00
268.47	870.00
268.74	888.00
269.00	922.00
269.27	919.00
269.54	878.00
269.80	893.00
270.07	931.00
270.33	908.00
270.60	898.00
270.87	919.00
271.13	897.00
271.40	935.00
271.67	868.00
271.93	875.00
272.20	926.00
272.47	898.00
272.73	864.00
273.00	902.00
273.27	915.00
273.53	973.00
273.80	905.00
274.07	893.00
274.33	913.00
274.60	944.00
274.86	912.00
275.13	900.00
275.40	907.00
275.66	948.00
275.93	902.00
276.20	890.00
276.46	897.00
276.73	909.00
277.00	907.00
277.26	922.00
277.53	961.00
277.79	926.00
278.06	887.00
278.33	937.00
278.59	934.00
278.86	903.00
279.13	894.00
279.39	913.00
279.66	952.00
279.93	955.00
280.19	916.00
280.46	912.00
280.72	924.00
280.99	938.00
281.26	900.00
281.52	901.00
281.79	937.00
282.05	917.00
282.32	890.00
282.59	902.00
282.85	954.00
283.12	935.00
283.39	915.00
283.65	921.00
283.92	917.00
284.18	931.00
284.45	905.00
284.72	922.00
284.98	918.00
285.25	901.00
285.51	920.00
285.78	919.00
286.05	934.00
286.31	917.00
286.58	870.00
286.84	894.00
287.11	914.00
287.38	924.00
287.64	924.00
287.91	898.00
288.17	933.00
288.44	934.00
288.71	864.00
288.97	905.00
289.24	943.00
289.50	914.00
289.77	906.00
290.04	890.00
290.30	907.00
290.57	949.00
290.83	879.00
291.10	885.00
291.37	905.00
291.63	918.00
291.90	938.00
292.16	919.00
292.43	928.00
292.70	911.00
292.96	875.00
293.23	885.00
293.49	891.00
293.76	922.00
294.02	881.00
294.29	890.00
294.56	925.00
294.82	929.00
295.09	861.00
295.35	884.00
295.62	952.00
295.89	954.00
296.15	888.00
296.42	885.00
296.68	918.00
296.95	915.00
297.21	900.00
297.48	893.00
297.75	927.00
298.01	960.00
298.28	905.00
298.54	931.00
298.81	909.00
299.07	933.00
299.34	885.00
299.61	898.00
299.87	943.00
300.14	920.00
300.40	915.00
300.67	908.00
300.93	924.00
301.20	984.00
301.46	895.00
301.73	906.00
302.00	937.00
302.26	906.00
302.53	896.00
302.79	902.00
303.06	927.00
303.32	985.00
303.59	893.00
303.85	881.00
304.12	916.00
304.39	931.00
304.65	888.00
304.92	893.00
305.18	928.00
305.45	930.00
305.71	900.00
305.98	913.00
306.24	926.00
306.51	911.00
306.77	897.00
307.04	902.00
307.31	924.00
307.57	937.00
307.84	884.00
308.10	905.00
308.37	890.00
308.63	905.00
308.90	888.00
309.16	921.00
309.43	930.00
309.69	898.00
309.96	898.00
310.22	893.00
310.49	922.00
310.76	939.00
311.02	873.00
311.29	903.00
311.55	905.00
311.82	906.00
312.08	913.00
312.35	925.00
312.61	919.00
312.88	944.00
313.14	900.00
313.41	874.00
313.67	876.00
313.94	923.00
314.20	921.00
314.47	913.00
314.73	896.00
315.00	900.00
315.26	881.00
315.53	921.00
315.79	922.00
316.06	937.00
316.32	907.00
316.59	924.00
316.85	920.00
317.12	915.00
317.39	872.00
317.65	897.00
317.92	916.00
318.18	932.00
318.45	894.00
318.71	946.00
318.98	955.00
319.24	935.00
319.51	915.00
319.77	899.00
320.04	896.00
320.30	905.00
320.57	892.00
320.83	894.00
321.10	891.00
321.36	892.00
321.63	869.00
321.89	896.00
322.16	955.00
322.42	927.00
322.69	892.00
322.95	894.00
323.22	916.00
323.48	924.00
323.75	892.00
324.01	900.00
324.28	909.00
324.54	934.00
324.80	896.00
325.07	920.00
325.33	934.00
325.60	909.00
325.86	891.00
326.13	886.00
326.39	902.00
326.66	876.00
326.92	845.00
327.19	892.00
327.45	954.00
327.72	954.00
327.98	889.00
328.25	872.00
328.51	907.00
328.78	915.00
329.04	893.00
329.31	912.00
329.57	910.00
329.84	916.00
330.10	887.00
330.37	904.00
330.63	950.00
330.89	968.00
331.16	893.00
331.42	896.00
331.69	947.00
331.95	926.00
332.22	906.00
332.48	940.00
332.75	924.00
333.01	872.00
333.28	878.00
333.54	893.00
333.81	933.00
334.07	946.00
334.34	905.00
334.60	901.00
334.86	945.00
335.13	967.00
335.39	909.00
335.66	902.00
335.92	952.00
336.19	935.00
336.45	845.00
336.72	862.00
336.98	898.00
337.24	913.00
337.51	879.00
337.77	902.00
338.04	925.00
338.30	929.00
338.57	892.00
338.83	897.00
339.10	930.00
339.36	940.00
339.63	888.00
339.89	871.00
340.15	906.00
340.42	927.00
340.68	910.00
340.95	901.00
341.21	921.00
341.48	926.00
341.74	878.00
342.00	870.00
342.27	917.00
342.53	925.00
342.80	888.00
343.06	900.00
343.33	927.00
343.59	948.00
343.85	883.00
344.12	906.00
344.38	981.00
344.65	957.00
344.91	885.00
345.18	893.00
345.44	890.00
345.70	902.00
345.97	860.00
346.23	881.00
346.50	932.00
346.76	926.00
347.03	921.00
347.29	905.00
347.55	909.00
347.82	922.00
348.08	852.00
348.35	886.00
348.61	967.00
348.87	947.00
349.14	880.00
349.40	890.00
349.67	928.00
349.93	910.00
350.20	893.00
350.46	909.00
350.72	938.00
350.99	909.00
351.25	900.00
351.52	891.00
351.78	912.00
352.04	924.00
352.31	901.00
352.57	901.00
352.84	887.00
353.10	916.00
353.36	903.00
353.63	905.00
353.89	915.00
354.16	932.00
354.42	902.00
354.68	901.00
354.95	955.00
355.21	946.00
355.48	878.00
355.74	921.00
356.00	946.00
356.27	959.00
356.53	884.00
356.80	869.00
357.06	917.00
357.32	943.00
357.59	922.00
357.85	903.00
358.11	947.00
358.38	937.00
358.64	900.00
358.91	901.00
359.17	902.00
359.43	925.00
359.70	928.00
359.96	913.00
360.22	938.00
360.49	925.00
360.75	912.00
361.02	894.00
361.28	895.00
361.54	925.00
361.81	885.00
362.07	911.00
362.33	891.00
362.60	896.00
362.86	883.00
363.13	897.00
363.39	934.00
363.65	932.00
363.92	865.00
364.18	877.00
364.44	907.00
364.71	927.00
364.97	902.00
365.24	896.00
365.50	936.00
365.76	930.00
366.03	884.00
366.29	917.00
366.55	927.00
366.82	921.00
367.08	868.00
367.34	876.00
367.61	923.00
367.87	932.00
368.13	900.00
368.40	907.00
368.66	953.00
368.93	938.00
369.19	870.00
369.45	889.00
369.72	935.00
369.98	908.00
370.24	868.00
370.51	895.00
370.77	913.00
371.03	917.00
371.30	900.00
371.56	922.00
371.82	936.00
372.09	923.00
372.35	921.00
372.61	914.00
372.88	915.00
373.14	939.00
373.40	898.00
373.67	898.00
373.93	919.00
374.19	914.00
374.46	884.00
374.72	876.00
374.98	917.00
375.25	926.00
375.51	908.00
375.77	921.00
376.04	922.00
376.30	929.00
376.56	879.00
376.83	900.00
377.09	925.00
377.35	935.00
377.62	923.00
377.88	897.00
378.14	902.00
378.41	924.00
378.67	897.00
378.93	883.00
379.20	925.00
379.46	907.00
379.72	882.00
379.99	870.00
380.25	882.00
380.51	897.00
380.77	897.00
381.04	914.00
381.30	934.00
381.56	964.00
381.83	915.00
382.09	902.00
382.35	906.00
382.62	933.00
382.88	901.00
383.14	890.00
383.41	905.00
383.67	910.00
383.93	913.00
384.20	896.00
384.46	920.00
384.72	934.00
384.98	884.00
385.25	914.00
385.51	928.00
385.77	919.00
386.04	874.00
386.30	877.00
386.56	932.00
386.82	966.00
387.09	906.00
387.35	950.00
387.61	997.00
387.88	937.00
388.14	917.00
388.40	909.00
388.67	916.00
388.93	910.00
389.19	903.00
389.45	894.00
389.72	918.00
389.98	928.00
390.24	886.00
390.51	889.00
390.77	926.00
391.03	938.00
391.29	881.00
391.56	893.00
391.82	926.00
392.08	951.00
392.35	909.00
392.61	895.00
392.87	936.00
393.13	951.00
393.40	889.00
393.66	897.00
393.92	922.00
394.18	931.00
394.45	871.00
394.71	891.00
394.97	899.00
395.24	857.00
395.50	860.00
395.76	911.00
396.02	930.00
396.29	904.00
396.55	869.00
396.81	844.00
397.07	897.00
397.34	890.00
397.60	871.00
397.86	877.00
398.12	900.00
398.39	924.00
398.65	885.00
398.91	905.00
399.17	915.00
399.44	877.00
399.70	843.00
399.96	893.00
400.22	916.00
400.49	946.00
400.75	903.00
401.01	885.00
401.27	900.00
401.54	924.00
401.80	894.00
402.06	865.00
402.32	932.00
402.59	922.00
402.85	884.00
403.11	899.00
403.37	889.00
403.64	934.00
403.90	897.00
404.16	890.00
404.42	911.00
404.69	900.00
404.95	886.00
405.21	856.00
405.47	890.00
405.74	925.00
406.00	881.00
406.26	884.00
406.52	921.00
406.79	944.00
407.05	892.00
407.31	889.00
407.57	904.00
407.83	922.00
408.10	848.00
408.36	884.00
408.62	918.00
408.88	914.00
409.15	893.00
409.41	851.00
409.67	881.00
409.93	920.00
410.20	880.00
410.46	891.00
410.72	899.00
410.98	885.00
411.24	868.00
411.51	875.00
411.77	890.00
412.03	908.00
412.29	908.00
412.55	908.00
412.82	908.00
413.08	927.00
413.34	914.00
413.60	911.00
413.87	903.00
414.13	912.00
414.39	851.00
414.65	882.00
414.91	910.00
415.18	898.00
415.44	873.00
415.70	866.00
415.96	903.00
416.22	904.00
416.49	866.00
416.75	880.00
417.01	910.00
417.27	933.00
417.53	912.00
417.80	907.00
418.06	931.00
418.32	940.00
418.58	883.00
418.84	871.00
419.11	911.00
419.37	911.00
419.63	885.00
419.89	893.00
420.15	914.00
420.42	906.00
420.68	874.00
420.94	887.00
421.20	910.00
421.46	919.00
421.72	925.00
421.99	923.00
422.25	914.00
422.51	907.00
422.77	898.00
423.03	910.00
423.30	904.00
423.56	925.00
423.82	913.00
424.08	925.00
424.34	945.00
424.60	912.00
424.87	882.00
425.13	871.00
425.39	886.00
425.65	886.00
425.91	869.00
426.18	882.00
426.44	893.00
426.70	891.00
426.96	862.00
427.22	860.00
427.48	881.00
427.75	901.00
428.01	861.00
428.27	900.00
428.53	941.00
428.79	904.00
429.05	910.00
429.32	906.00
429.58	941.00
429.84	894.00
430.10	902.00
430.36	910.00
430.62	935.00
430.88	919.00
431.15	886.00
431.41	894.00
431.67	916.00
431.93	901.00
432.19	851.00
432.45	901.00
432.72	912.00
432.98	910.00
433.24	921.00
433.50	988.00
433.76	894.00
434.02	890.00
434.28	854.00
434.55	887.00
434.81	918.00
435.07	928.00
435.33	870.00
435.59	872.00
435.85	890.00
436.11	929.00
436.38	872.00
436.64	873.00
436.90	882.00
437.16	905.00
437.42	892.00
437.68	902.00
437.94	912.00
438.21	905.00
438.47	918.00
438.73	910.00
438.99	886.00
439.25	913.00
439.51	887.00
439.77	907.00
440.03	912.00
440.30	920.00
440.56	885.00
440.82	922.00
441.08	931.00
441.34	933.00
441.60	861.00
441.86	898.00
442.12	909.00
442.39	882.00
442.65	857.00
442.91	888.00
443.17	892.00
443.43	907.00
443.69	901.00
443.95	891.00
444.21	903.00
444.47	935.00
444.74	870.00
445.00	906.00
445.26	893.00
445.52	905.00
445.78	878.00
446.04	890.00
446.30	926.00
446.56	915.00
446.82	868.00
447.09	908.00
447.35	928.00
447.61	914.00
447.87	907.00
448.13	894.00
448.39	948.00
448.65	916.00
448.91	875.00
449.17	875.00
449.43	888.00
449.70	904.00
449.96	872.00
450.22	862.00
450.48	897.00
450.74	950.00
451.00	901.00
451.26	887.00
451.52	904.00
451.78	886.00
452.04	864.00
452.31	905.00
452.57	914.00
452.83	889.00
453.09	878.00
453.35	895.00
453.61	893.00
453.87	905.00
454.13	903.00
454.39	913.00
454.65	958.00
454.91	954.00
455.17	871.00
455.44	881.00
455.70	918.00
455.96	932.00
456.22	868.00
456.48	877.00
456.74	890.00
457.00	879.00
457.26	840.00
457.52	863.00
457.78	880.00
458.04	914.00
458.30	867.00
458.56	886.00
458.82	901.00
459.09	887.00
459.35	853.00
459.61	872.00
459.87	909.00
460.13	923.00
460.39	874.00
460.65	877.00
460.91	950.00
461.17	918.00
461.43	844.00
461.69	867.00
461.95	910.00
462.21	904.00
462.47	884.00
462.73	910.00
462.99	936.00
463.26	921.00
463.52	863.00
463.78	876.00
464.04	886.00
464.30	909.00
464.56	876.00
464.82	902.00
465.08	950.00
465.34	946.00
465.60	892.00
465.86	890.00
466.12	905.00
466.38	883.00
466.64	885.00
466.90	889.00
467.16	904.00
467.42	913.00
467.68	867.00
467.94	894.00
468.20	925.00
468.46	922.00
468.72	894.00
468.98	904.00
469.25	902.00
469.51	895.00
469.77	915.00
470.03	914.00
470.29	902.00
470.55	921.00
470.81	896.00
471.07	891.00
471.33	916.00
471.59	935.00
471.85	891.00
472.11	888.00
472.37	914.00
472.63	907.00
472.89	906.00
473.15	884.00
473.41	899.00
473.67	898.00
473.93	848.00
474.19	850.00
474.45	889.00
474.71	903.00
474.97	871.00
475.23	875.00
475.49	891.00
475.75	882.00
476.01	893.00
476.27	924.00
476.53	941.00
476.79	924.00
477.05	883.00
477.31	878.00
477.57	911.00
477.83	910.00
478.09	862.00
478.35	899.00
478.61	927.00
478.87	908.00
479.13	870.00
479.39	903.00
479.65	929.00
479.91	929.00
480.17	900.00
480.43	905.00
480.69	895.00
480.95	909.00
481.21	886.00
481.47	883.00
481.73	906.00
481.99	883.00
482.25	872.00
482.51	871.00
482.77	934.00
483.03	930.00
483.29	901.00
483.55	899.00
483.81	918.00
484.07	919.00
484.33	879.00
484.59	869.00
484.85	918.00
485.11	925.00
485.37	869.00
485.63	884.00
485.89	900.00
486.15	883.00
486.41	869.00
486.67	891.00
486.93	919.00
487.19	901.00
487.45	874.00
487.71	884.00
487.97	922.00
488.23	914.00
488.49	872.00
488.75	877.00
489.01	924.00
489.27	954.00
489.53	897.00
489.79	879.00
490.05	891.00
490.31	922.00
490.57	913.00
490.83	950.00
491.08	912.00
491.34	896.00
491.60	860.00
491.86	893.00
492.12	954.00
492.38	939.00
492.64	863.00
492.90	854.00
493.16	912.00
493.42	877.00
493.68	867.00
493.94	884.00
494.20	892.00
494.46	919.00
494.72	903.00
494.98	871.00
495.24	891.00
495.50	911.00
495.76	904.00
496.02	906.00
496.28	936.00
496.54	937.00
496.80	903.00
497.05	870.00
497.31	912.00
497.57	916.00
497.83	867.00
498.09	911.00
498.35	942.00
498.61	922.00
498.87	886.00
499.13	889.00
499.39	896.00
499.65	894.00
499.91	907.00
500.17	871.00
500.43	959.00
500.69	989.00
500.95	898.00
501.20	908.00
501.46	931.00
501.72	925.00
501.98	917.00
502.24	918.00
502.50	933.00
502.76	901.00
503.02	887.00
503.28	899.00
503.54	957.00
503.80	949.00
504.06	922.00
504.32	928.00
504.58	935.00
504.83	906.00
505.09	855.00
505.35	888.00
505.61	877.00
505.87	899.00
506.13	884.00
506.39	878.00
506.65	938.00
506.91	978.00
507.17	897.00
507.43	880.00
507.68	885.00
507.94	929.00
508.20	878.00
508.46	867.00
508.72	918.00
508.98	933.00
509.24	876.00
509.50	907.00
509.76	897.00
510.02	906.00
510.28	870.00
510.53	886.00
510.79	914.00
511.05	894.00
511.31	879.00
511.57	888.00
511.83	912.00
512.09	930.00
512.35	876.00
512.61	886.00
512.87	908.00
513.12	926.00
513.38	877.00
513.64	903.00
513.90	931.00
514.16	941.00
514.42	899.00
514.68	893.00
514.94	912.00
515.20	923.00
515.45	877.00
515.71	890.00
515.97	906.00
516.23	898.00
516.49	871.00
516.75	889.00
517.01	906.00
517.27	901.00
517.53	863.00
517.78	897.00
518.04	918.00
518.30	906.00
518.56	866.00
518.82	887.00
519.08	920.00
519.34	876.00
519.60	884.00
519.85	898.00
520.11	904.00
520.37	905.00
520.63	879.00
520.89	903.00
521.15	905.00
521.41	884.00
521.66	882.00
521.92	879.00
522.18	919.00
522.44	922.00
522.70	884.00
522.96	869.00
523.22	924.00
523.48	904.00
523.73	889.00
523.99	880.00
524.25	939.00
524.51	907.00
524.77	878.00
525.03	882.00
525.29	939.00
525.54	919.00
525.80	871.00
526.06	891.00
526.32	906.00
526.58	897.00
526.84	877.00
527.09	867.00
527.35	885.00
527.61	910.00
527.87	885.00
528.13	905.00
528.39	901.00
528.65	905.00
528.90	865.00
529.16	874.00
529.42	876.00
529.68	897.00
529.94	868.00
530.20	882.00
530.45	876.00
530.71	909.00
530.97	870.00
531.23	882.00
531.49	916.00
531.75	908.00
532.00	881.00
532.26	872.00
532.52	915.00
532.78	897.00
533.04	866.00
533.30	886.00
533.55	906.00
533.81	903.00
534.07	851.00
534.33	865.00
534.59	921.00
534.85	907.00
535.10	856.00
535.36	869.00
535.62	922.00
535.88	907.00
